# n + 208Pb   : (n,n')            Total
# Q-value    = 0.00000E+00
# E-threshold= 2.62723E+00
# # energies = 46
#    E         xs       gamma xs  xs/res.prod.xs
 1.000E+00 0.00000E+00 0.00000E+00 0.00000E+00
 1.200E+00 0.00000E+00 0.00000E+00 0.00000E+00
 1.400E+00 0.00000E+00 0.00000E+00 0.00000E+00
 1.600E+00 0.00000E+00 0.00000E+00 0.00000E+00
 1.800E+00 0.00000E+00 0.00000E+00 0.00000E+00
 2.000E+00 0.00000E+00 0.00000E+00 0.00000E+00
 2.200E+00 0.00000E+00 0.00000E+00 0.00000E+00
 2.400E+00 0.00000E+00 0.00000E+00 0.00000E+00
 2.600E+00 0.00000E+00 0.00000E+00 0.00000E+00
 2.800E+00 3.16465E+02 3.16465E+02 9.98914E-01
 3.000E+00 5.14203E+02 5.14203E+02 9.99215E-01
 3.200E+00 6.63450E+02 6.63450E+02 9.99247E-01
 3.400E+00 8.73828E+02 1.01158E+03 9.99430E-01
 3.600E+00 1.07065E+03 1.41961E+03 9.99467E-01
 3.800E+00 1.25958E+03 1.88343E+03 9.99475E-01
 4.000E+00 1.44265E+03 2.43082E+03 9.99476E-01
 4.200E+00 1.71074E+03 3.28484E+03 9.99558E-01
 4.400E+00 2.00327E+03 4.18598E+03 9.99638E-01
 4.600E+00 2.19567E+03 4.79790E+03 9.99678E-01
 4.800E+00 2.32073E+03 5.23212E+03 9.99691E-01
 5.000E+00 2.40242E+03 5.56138E+03 9.99689E-01
 5.500E+00 2.50119E+03 6.16685E+03 9.99661E-01
 6.000E+00 2.52775E+03 6.64206E+03 9.99613E-01
 6.500E+00 2.53356E+03 7.10992E+03 9.99548E-01
 7.000E+00 2.54315E+03 7.62768E+03 9.99457E-01
 7.500E+00 2.56576E+03 8.20801E+03 9.99342E-01
 8.000E+00 2.49804E+03 8.50639E+03 9.99175E-01
 8.500E+00 2.31902E+03 8.34871E+03 9.98922E-01
 9.000E+00 2.05447E+03 7.74161E+03 9.98546E-01
 9.500E+00 1.74985E+03 6.82064E+03 9.97994E-01
 1.000E+01 1.43580E+03 5.74115E+03 9.97178E-01
 1.100E+01 9.30594E+02 3.78212E+03 9.94554E-01
 1.200E+01 6.29343E+02 2.48863E+03 9.90703E-01
 1.300E+01 4.75204E+02 1.80461E+03 9.86785E-01
 1.400E+01 3.95980E+02 1.44720E+03 9.84056E-01
 1.500E+01 3.52602E+02 1.26200E+03 9.82839E-01
 1.600E+01 3.25025E+02 1.15309E+03 9.82756E-01
 1.700E+01 3.08725E+02 1.09782E+03 9.83432E-01
 1.800E+01 2.91629E+02 1.03534E+03 9.84286E-01
 1.900E+01 2.77205E+02 9.87509E+02 9.85465E-01
 2.000E+01 2.65493E+02 9.46173E+02 9.86957E-01
 2.200E+01 2.43079E+02 8.63380E+02 9.90698E-01
 2.400E+01 2.22309E+02 7.91047E+02 9.93769E-01
 2.600E+01 2.02549E+02 7.18771E+02 9.95474E-01
 2.800E+01 1.89336E+02 6.71524E+02 9.96259E-01
 3.000E+01 1.74748E+02 6.16537E+02 9.96715E-01
