# n + 208Pb   : (n,n')            Total
# Q-value    = 0.00000E+00
# E-threshold= 2.62720E+00
# # energies = 46
#    E         xs       gamma xs  xs/res.prod.xs
 1.000E+00 0.00000E+00 0.00000E+00 0.00000E+00
 1.200E+00 0.00000E+00 0.00000E+00 0.00000E+00
 1.400E+00 0.00000E+00 0.00000E+00 0.00000E+00
 1.600E+00 0.00000E+00 0.00000E+00 0.00000E+00
 1.800E+00 0.00000E+00 0.00000E+00 0.00000E+00
 2.000E+00 0.00000E+00 0.00000E+00 0.00000E+00
 2.200E+00 0.00000E+00 0.00000E+00 0.00000E+00
 2.400E+00 0.00000E+00 0.00000E+00 0.00000E+00
 2.600E+00 0.00000E+00 0.00000E+00 0.00000E+00
 2.800E+00 3.16492E+02 3.16492E+02 9.98889E-01
 3.000E+00 5.14217E+02 5.14217E+02 9.99193E-01
 3.200E+00 6.63456E+02 6.63456E+02 9.99221E-01
 3.400E+00 8.73836E+02 1.01160E+03 9.99416E-01
 3.600E+00 1.07066E+03 1.41068E+03 9.99454E-01
 3.800E+00 1.25958E+03 1.86456E+03 9.99461E-01
 4.000E+00 1.44258E+03 2.40681E+03 9.99464E-01
 4.200E+00 1.69154E+03 3.17901E+03 9.99528E-01
 4.400E+00 1.95841E+03 4.00483E+03 9.99608E-01
 4.600E+00 2.14091E+03 4.63385E+03 9.99642E-01
 4.800E+00 2.26126E+03 5.08630E+03 9.99644E-01
 5.000E+00 2.34916E+03 5.46304E+03 9.99639E-01
 5.500E+00 2.47144E+03 6.14849E+03 9.99608E-01
 6.000E+00 2.51235E+03 6.64535E+03 9.99557E-01
 6.500E+00 2.52571E+03 7.10453E+03 9.99485E-01
 7.000E+00 2.53916E+03 7.59139E+03 9.99390E-01
 7.500E+00 2.56384E+03 8.12757E+03 9.99269E-01
 8.000E+00 2.48389E+03 8.33227E+03 9.99086E-01
 8.500E+00 2.27483E+03 8.02669E+03 9.98798E-01
 9.000E+00 1.99199E+03 7.31613E+03 9.98369E-01
 9.500E+00 1.66591E+03 6.30984E+03 9.97726E-01
 1.000E+01 1.35220E+03 5.22690E+03 9.96795E-01
 1.100E+01 8.59322E+02 3.36022E+03 9.93772E-01
 1.200E+01 5.73139E+02 2.18851E+03 9.89271E-01
 1.300E+01 4.27307E+02 1.57257E+03 9.84729E-01
 1.400E+01 3.57485E+02 1.27392E+03 9.81856E-01
 1.500E+01 3.19622E+02 1.11762E+03 9.80790E-01
 1.600E+01 2.95343E+02 1.02621E+03 9.80944E-01
 1.700E+01 2.80689E+02 9.75467E+02 9.81844E-01
 1.800E+01 2.65109E+02 9.21061E+02 9.82929E-01
 1.900E+01 2.52073E+02 8.76241E+02 9.84314E-01
 2.000E+01 2.42358E+02 8.46039E+02 9.86057E-01
 2.200E+01 2.22414E+02 7.80361E+02 9.90369E-01
 2.400E+01 2.05492E+02 7.23823E+02 9.93826E-01
 2.600E+01 1.84519E+02 6.50514E+02 9.95619E-01
 2.800E+01 1.71686E+02 6.03472E+02 9.96509E-01
 3.000E+01 1.60183E+02 5.62209E+02 9.96927E-01
