# n + 208Pb   : (n,n')            Total
# Q-value    = 0.00000E+00
# E-threshold= 2.62723E+00
# # energies = 46
#    E         xs       gamma xs  xs/res.prod.xs
 1.000E+00 0.00000E+00 0.00000E+00 0.00000E+00
 1.200E+00 0.00000E+00 0.00000E+00 0.00000E+00
 1.400E+00 0.00000E+00 0.00000E+00 0.00000E+00
 1.600E+00 0.00000E+00 0.00000E+00 0.00000E+00
 1.800E+00 0.00000E+00 0.00000E+00 0.00000E+00
 2.000E+00 0.00000E+00 0.00000E+00 0.00000E+00
 2.200E+00 0.00000E+00 0.00000E+00 0.00000E+00
 2.400E+00 0.00000E+00 0.00000E+00 0.00000E+00
 2.600E+00 0.00000E+00 0.00000E+00 0.00000E+00
 2.800E+00 3.16456E+02 3.16456E+02 9.98882E-01
 3.000E+00 5.14190E+02 5.14190E+02 9.99191E-01
 3.200E+00 6.63435E+02 6.63435E+02 9.99224E-01
 3.400E+00 8.73812E+02 1.01156E+03 9.99415E-01
 3.600E+00 1.07063E+03 1.41068E+03 9.99454E-01
 3.800E+00 1.25956E+03 1.86469E+03 9.99462E-01
 4.000E+00 1.44263E+03 2.40003E+03 9.99465E-01
 4.200E+00 1.71071E+03 3.24245E+03 9.99548E-01
 4.400E+00 2.00334E+03 4.13553E+03 9.99641E-01
 4.600E+00 2.19575E+03 4.74362E+03 9.99682E-01
 4.800E+00 2.32086E+03 5.17654E+03 9.99695E-01
 5.000E+00 2.40260E+03 5.50550E+03 9.99693E-01
 5.500E+00 2.50152E+03 6.11232E+03 9.99666E-01
 6.000E+00 2.52809E+03 6.58995E+03 9.99620E-01
 6.500E+00 2.53388E+03 7.05772E+03 9.99555E-01
 7.000E+00 2.54343E+03 7.57044E+03 9.99466E-01
 7.500E+00 2.56555E+03 8.14134E+03 9.99353E-01
 8.000E+00 2.48603E+03 8.38831E+03 9.99186E-01
 8.500E+00 2.29100E+03 8.15764E+03 9.98929E-01
 9.000E+00 2.01131E+03 7.47648E+03 9.98543E-01
 9.500E+00 1.70356E+03 6.53376E+03 9.97981E-01
 1.000E+01 1.38877E+03 5.45706E+03 9.97146E-01
 1.100E+01 8.96010E+02 3.56378E+03 9.94471E-01
 1.200E+01 6.12072E+02 2.35819E+03 9.90557E-01
 1.300E+01 4.67140E+02 1.72636E+03 9.86617E-01
 1.400E+01 3.93320E+02 1.40149E+03 9.84021E-01
 1.500E+01 3.52489E+02 1.23215E+03 9.82965E-01
 1.600E+01 3.26677E+02 1.13461E+03 9.82968E-01
 1.700E+01 3.10602E+02 1.08187E+03 9.83678E-01
 1.800E+01 2.93802E+02 1.02110E+03 9.84588E-01
 1.900E+01 2.79363E+02 9.74451E+02 9.85772E-01
 2.000E+01 2.68040E+02 9.35886E+02 9.87320E-01
 2.200E+01 2.45264E+02 8.53540E+02 9.91248E-01
 2.400E+01 2.24276E+02 7.81692E+02 9.94445E-01
 2.600E+01 2.03902E+02 7.08048E+02 9.96190E-01
 2.800E+01 1.90720E+02 6.61911E+02 9.96958E-01
 3.000E+01 1.76385E+02 6.09005E+02 9.97358E-01
