# n + Pb208: Gamma-ray intensity - 209Pb: Level  6 --> Level  3 - gamma energy    0.748844
# E-initial  =   2.315930 E-final=   1.567086
# E-threshold= 0.00000E+00
# # energies =    67
#    E           xs
 1.00000E-11 0.00000E+00
 2.53000E-08 0.00000E+00
 2.00000E-07 0.00000E+00
 1.00000E-06 8.13093E+01
 1.00000E-03 2.31057E-01
 2.00000E-03 1.35326E-01
 5.00000E-03 7.59108E-02
 1.00000E-02 5.11673E-02
 2.00000E-02 3.18055E-02
 5.00000E-02 1.59394E-02
 1.00000E-01 9.94418E-03
 2.00000E-01 6.67362E-03
 3.00000E-01 5.61745E-03
 4.00000E-01 5.20190E-03
 5.00000E-01 5.07832E-03
 7.50000E-01 5.41251E-03
 1.00000E+00 6.27430E-03
 1.20000E+00 7.26299E-03
 1.40000E+00 8.53547E-03
 1.60000E+00 1.00746E-02
 1.80000E+00 1.19357E-02
 2.00000E+00 1.41763E-02
 2.20000E+00 1.68266E-02
 2.40000E+00 2.00596E-02
 2.60000E+00 2.39056E-02
 2.80000E+00 2.07913E-02
 3.00000E+00 2.08271E-02
 3.20000E+00 2.19206E-02
 3.40000E+00 2.28736E-02
 3.60000E+00 2.40337E-02
 3.80000E+00 2.44038E-02
 4.00000E+00 2.48531E-02
 4.20000E+00 2.24325E-02
 4.40000E+00 1.87900E-02
 4.60000E+00 1.60109E-02
 4.80000E+00 1.37114E-02
 5.00000E+00 1.16049E-02
 5.50000E+00 8.63281E-03
 6.00000E+00 6.58494E-03
 6.50000E+00 5.75901E-03
 7.00000E+00 5.16091E-03
 7.50000E+00 5.26229E-03
 8.00000E+00 5.71274E-03
 8.50000E+00 6.30709E-03
 9.00000E+00 7.56887E-03
 9.50000E+00 9.19254E-03
 1.00000E+01 1.11431E-02
 1.10000E+01 1.53676E-02
 1.20000E+01 1.78376E-02
 1.30000E+01 1.65645E-02
 1.40000E+01 1.41172E-02
 1.50000E+01 1.15998E-02
 1.60000E+01 9.49553E-03
 1.70000E+01 8.07546E-03
 1.80000E+01 6.45883E-03
 1.90000E+01 5.73809E-03
 2.00000E+01 5.06359E-03
 2.10000E+01 4.48578E-03
 2.20000E+01 4.03500E-03
 2.30000E+01 3.69526E-03
 2.40000E+01 3.35247E-03
 2.50000E+01 3.08953E-03
 2.60000E+01 2.88791E-03
 2.70000E+01 2.67308E-03
 2.80000E+01 2.34284E-03
 2.90000E+01 2.20913E-03
 3.00000E+01 2.10077E-03
