# n + Pb208: Gamma-ray intensity - 209Pb: Level  9 --> Level  1 - gamma energy    1.712110
# E-initial  =   2.491000 E-final=   0.778890
# E-threshold= 0.00000E+00
# # energies =    67
#    E           xs
 1.00000E-11 0.00000E+00
 2.53000E-08 0.00000E+00
 2.00000E-07 0.00000E+00
 1.00000E-06 4.31020E-04
 1.00000E-03 2.26950E-04
 2.00000E-03 3.30300E-04
 5.00000E-03 6.37215E-04
 1.00000E-02 7.03738E-04
 2.00000E-02 5.40899E-04
 5.00000E-02 3.60094E-04
 1.00000E-01 3.45146E-04
 2.00000E-01 3.65457E-04
 3.00000E-01 3.83837E-04
 4.00000E-01 3.98366E-04
 5.00000E-01 4.15604E-04
 7.50000E-01 4.91769E-04
 1.00000E+00 6.21808E-04
 1.20000E+00 7.61737E-04
 1.40000E+00 9.33214E-04
 1.60000E+00 1.13838E-03
 1.80000E+00 1.38455E-03
 2.00000E+00 1.67673E-03
 2.20000E+00 2.02104E-03
 2.40000E+00 2.42978E-03
 2.60000E+00 2.91158E-03
 2.80000E+00 2.33254E-03
 3.00000E+00 2.26711E-03
 3.20000E+00 2.39331E-03
 3.40000E+00 2.31716E-03
 3.60000E+00 2.29489E-03
 3.80000E+00 2.32866E-03
 4.00000E+00 2.33340E-03
 4.20000E+00 2.10783E-03
 4.40000E+00 1.87014E-03
 4.60000E+00 1.65550E-03
 4.80000E+00 1.47859E-03
 5.00000E+00 1.31334E-03
 5.50000E+00 9.96554E-04
 6.00000E+00 7.40334E-04
 6.50000E+00 5.62167E-04
 7.00000E+00 4.36953E-04
 7.50000E+00 3.59498E-04
 8.00000E+00 3.11290E-04
 8.50000E+00 2.81882E-04
 9.00000E+00 2.76249E-04
 9.50000E+00 2.85562E-04
 1.00000E+01 3.13831E-04
 1.10000E+01 3.95357E-04
 1.20000E+01 4.82855E-04
 1.30000E+01 5.04256E-04
 1.40000E+01 4.39023E-04
 1.50000E+01 3.81067E-04
 1.60000E+01 3.21291E-04
 1.70000E+01 2.89104E-04
 1.80000E+01 2.37636E-04
 1.90000E+01 2.17560E-04
 2.00000E+01 1.95554E-04
 2.10000E+01 1.71418E-04
 2.20000E+01 1.51867E-04
 2.30000E+01 1.36761E-04
 2.40000E+01 1.17796E-04
 2.50000E+01 1.05009E-04
 2.60000E+01 9.57422E-05
 2.70000E+01 8.82364E-05
 2.80000E+01 7.69664E-05
 2.90000E+01 7.21158E-05
 3.00000E+01 6.84952E-05
