# n + Pb208: Gamma-ray intensity - 208Pb: Level 14 --> Level  3 - gamma energy    0.705336
# E-initial  =   4.180414 E-final=   3.475078
# E-threshold= 4.20069E+00
# # energies =    67
#    E           xs
 1.00000E-11 0.00000E+00
 2.53000E-08 0.00000E+00
 2.00000E-07 0.00000E+00
 1.00000E-06 0.00000E+00
 1.00000E-03 0.00000E+00
 2.00000E-03 0.00000E+00
 5.00000E-03 0.00000E+00
 1.00000E-02 0.00000E+00
 2.00000E-02 0.00000E+00
 5.00000E-02 0.00000E+00
 1.00000E-01 0.00000E+00
 2.00000E-01 0.00000E+00
 3.00000E-01 0.00000E+00
 4.00000E-01 0.00000E+00
 5.00000E-01 0.00000E+00
 7.50000E-01 0.00000E+00
 1.00000E+00 0.00000E+00
 1.20000E+00 0.00000E+00
 1.40000E+00 0.00000E+00
 1.60000E+00 0.00000E+00
 1.80000E+00 0.00000E+00
 2.00000E+00 0.00000E+00
 2.20000E+00 0.00000E+00
 2.40000E+00 0.00000E+00
 2.60000E+00 0.00000E+00
 2.80000E+00 0.00000E+00
 3.00000E+00 0.00000E+00
 3.20000E+00 0.00000E+00
 3.40000E+00 0.00000E+00
 3.60000E+00 0.00000E+00
 3.80000E+00 0.00000E+00
 4.00000E+00 0.00000E+00
 4.20000E+00 0.00000E+00
 4.40000E+00 3.67010E+00
 4.60000E+00 5.33919E+00
 4.80000E+00 6.20991E+00
 5.00000E+00 6.51574E+00
 5.50000E+00 6.31987E+00
 6.00000E+00 5.97987E+00
 6.50000E+00 5.73943E+00
 7.00000E+00 5.60624E+00
 7.50000E+00 5.60476E+00
 8.00000E+00 5.56983E+00
 8.50000E+00 5.23439E+00
 9.00000E+00 4.53138E+00
 9.50000E+00 3.68075E+00
 1.00000E+01 2.85977E+00
 1.10000E+01 1.63666E+00
 1.20000E+01 1.00578E+00
 1.30000E+01 7.21618E-01
 1.40000E+01 5.85566E-01
 1.50000E+01 5.19195E-01
 1.60000E+01 4.76143E-01
 1.70000E+01 4.53451E-01
 1.80000E+01 4.29447E-01
 1.90000E+01 4.08712E-01
 2.00000E+01 3.90228E-01
 2.10000E+01 3.74668E-01
 2.20000E+01 3.60465E-01
 2.30000E+01 3.47742E-01
 2.40000E+01 3.29853E-01
 2.50000E+01 3.17135E-01
 2.60000E+01 3.02097E-01
 2.70000E+01 2.88630E-01
 2.80000E+01 2.78935E-01
 2.90000E+01 2.67388E-01
 3.00000E+01 2.53388E-01
