# n + Pb208: Gamma-ray intensity - 208Pb: Level 10 --> Level  1 - gamma energy    1.436612
# E-initial  =   4.051134 E-final=   2.614522
# E-threshold= 4.07078E+00
# # energies =    67
#    E           xs
 1.00000E-11 0.00000E+00
 2.53000E-08 0.00000E+00
 2.00000E-07 0.00000E+00
 1.00000E-06 0.00000E+00
 1.00000E-03 0.00000E+00
 2.00000E-03 0.00000E+00
 5.00000E-03 0.00000E+00
 1.00000E-02 0.00000E+00
 2.00000E-02 0.00000E+00
 5.00000E-02 0.00000E+00
 1.00000E-01 0.00000E+00
 2.00000E-01 0.00000E+00
 3.00000E-01 0.00000E+00
 4.00000E-01 0.00000E+00
 5.00000E-01 0.00000E+00
 7.50000E-01 0.00000E+00
 1.00000E+00 0.00000E+00
 1.20000E+00 0.00000E+00
 1.40000E+00 0.00000E+00
 1.60000E+00 0.00000E+00
 1.80000E+00 0.00000E+00
 2.00000E+00 0.00000E+00
 2.20000E+00 0.00000E+00
 2.40000E+00 0.00000E+00
 2.60000E+00 0.00000E+00
 2.80000E+00 0.00000E+00
 3.00000E+00 0.00000E+00
 3.20000E+00 0.00000E+00
 3.40000E+00 0.00000E+00
 3.60000E+00 0.00000E+00
 3.80000E+00 0.00000E+00
 4.00000E+00 0.00000E+00
 4.20000E+00 5.11854E+01
 4.40000E+00 8.43989E+01
 4.60000E+00 9.79508E+01
 4.80000E+00 9.97895E+01
 5.00000E+00 9.65510E+01
 5.50000E+00 8.53633E+01
 6.00000E+00 7.66545E+01
 6.50000E+00 6.94018E+01
 7.00000E+00 6.38605E+01
 7.50000E+00 6.01156E+01
 8.00000E+00 5.34043E+01
 8.50000E+00 4.38338E+01
 9.00000E+00 3.42486E+01
 9.50000E+00 2.59442E+01
 1.00000E+01 1.91808E+01
 1.10000E+01 1.07680E+01
 1.20000E+01 7.08139E+00
 1.30000E+01 5.39388E+00
 1.40000E+01 4.61030E+00
 1.50000E+01 4.10041E+00
 1.60000E+01 3.76923E+00
 1.70000E+01 3.61310E+00
 1.80000E+01 3.42714E+00
 1.90000E+01 3.24224E+00
 2.00000E+01 3.14602E+00
 2.10000E+01 2.99633E+00
 2.20000E+01 2.91644E+00
 2.30000E+01 2.77897E+00
 2.40000E+01 2.67079E+00
 2.50000E+01 2.58732E+00
 2.60000E+01 2.46092E+00
 2.70000E+01 2.37305E+00
 2.80000E+01 2.31780E+00
 2.90000E+01 2.26219E+00
 3.00000E+01 2.13624E+00
