# n + Pb208: Gamma-ray intensity - 209Pb: Level  9 --> Level  0 - gamma energy    2.491000
# E-initial  =   2.491000 E-final=   0.000000
# E-threshold= 0.00000E+00
# # energies =    67
#    E           xs
 1.00000E-11 0.00000E+00
 2.53000E-08 0.00000E+00
 2.00000E-07 0.00000E+00
 1.00000E-06 1.39029E-02
 1.00000E-03 7.32047E-03
 2.00000E-03 1.06541E-02
 5.00000E-03 2.05540E-02
 1.00000E-02 2.26997E-02
 2.00000E-02 1.74472E-02
 5.00000E-02 1.16152E-02
 1.00000E-01 1.11330E-02
 2.00000E-01 1.17882E-02
 3.00000E-01 1.23810E-02
 4.00000E-01 1.28497E-02
 5.00000E-01 1.34057E-02
 7.50000E-01 1.58625E-02
 1.00000E+00 2.00570E-02
 1.20000E+00 2.45705E-02
 1.40000E+00 3.01017E-02
 1.60000E+00 3.67195E-02
 1.80000E+00 4.46600E-02
 2.00000E+00 5.40845E-02
 2.20000E+00 6.51904E-02
 2.40000E+00 7.83747E-02
 2.60000E+00 9.39158E-02
 2.80000E+00 7.52381E-02
 3.00000E+00 7.31278E-02
 3.20000E+00 7.71984E-02
 3.40000E+00 7.47423E-02
 3.60000E+00 7.40238E-02
 3.80000E+00 7.51130E-02
 4.00000E+00 7.52660E-02
 4.20000E+00 6.79899E-02
 4.40000E+00 6.03231E-02
 4.60000E+00 5.33996E-02
 4.80000E+00 4.76933E-02
 5.00000E+00 4.23630E-02
 5.50000E+00 3.21448E-02
 6.00000E+00 2.38802E-02
 6.50000E+00 1.81332E-02
 7.00000E+00 1.40943E-02
 7.50000E+00 1.15959E-02
 8.00000E+00 1.00409E-02
 8.50000E+00 9.09238E-03
 9.00000E+00 8.91067E-03
 9.50000E+00 9.21106E-03
 1.00000E+01 1.01229E-02
 1.10000E+01 1.27526E-02
 1.20000E+01 1.55749E-02
 1.30000E+01 1.62652E-02
 1.40000E+01 1.41611E-02
 1.50000E+01 1.22917E-02
 1.60000E+01 1.03635E-02
 1.70000E+01 9.32532E-03
 1.80000E+01 7.66518E-03
 1.90000E+01 7.01760E-03
 2.00000E+01 6.30777E-03
 2.10000E+01 5.52926E-03
 2.20000E+01 4.89860E-03
 2.30000E+01 4.41137E-03
 2.40000E+01 3.79963E-03
 2.50000E+01 3.38717E-03
 2.60000E+01 3.08825E-03
 2.70000E+01 2.84615E-03
 2.80000E+01 2.48262E-03
 2.90000E+01 2.32616E-03
 3.00000E+01 2.20937E-03
