# n + Pb208: Gamma-ray intensity - 209Pb: Level  7 --> Level  3 - gamma energy    0.856914
# E-initial  =   2.424000 E-final=   1.567086
# E-threshold= 0.00000E+00
# # energies =    67
#    E           xs
 1.00000E-11 0.00000E+00
 2.53000E-08 0.00000E+00
 2.00000E-07 0.00000E+00
 1.00000E-06 5.94890E-04
 1.00000E-03 5.37270E-04
 2.00000E-03 6.70824E-04
 5.00000E-03 1.18759E-03
 1.00000E-02 1.30013E-03
 2.00000E-02 1.00632E-03
 5.00000E-02 6.43389E-04
 1.00000E-01 5.56485E-04
 2.00000E-01 5.64208E-04
 3.00000E-01 6.14627E-04
 4.00000E-01 6.63129E-04
 5.00000E-01 7.11135E-04
 7.50000E-01 8.60340E-04
 1.00000E+00 1.06283E-03
 1.20000E+00 1.26923E-03
 1.40000E+00 1.51511E-03
 1.60000E+00 1.80836E-03
 1.80000E+00 2.16073E-03
 2.00000E+00 2.57708E-03
 2.20000E+00 3.06823E-03
 2.40000E+00 3.65514E-03
 2.60000E+00 4.34144E-03
 2.80000E+00 2.90228E-03
 3.00000E+00 2.67602E-03
 3.20000E+00 2.72161E-03
 3.40000E+00 2.48138E-03
 3.60000E+00 2.36264E-03
 3.80000E+00 2.26636E-03
 4.00000E+00 2.19264E-03
 4.20000E+00 1.90594E-03
 4.40000E+00 1.64553E-03
 4.60000E+00 1.44684E-03
 4.80000E+00 1.28329E-03
 5.00000E+00 1.13576E-03
 5.50000E+00 8.79104E-04
 6.00000E+00 6.86082E-04
 6.50000E+00 5.75579E-04
 7.00000E+00 5.03507E-04
 7.50000E+00 4.75093E-04
 8.00000E+00 4.76234E-04
 8.50000E+00 4.96756E-04
 9.00000E+00 5.54346E-04
 9.50000E+00 6.39614E-04
 1.00000E+01 7.58718E-04
 1.10000E+01 1.02907E-03
 1.20000E+01 1.23286E-03
 1.30000E+01 1.22456E-03
 1.40000E+01 1.06946E-03
 1.50000E+01 8.95196E-04
 1.60000E+01 7.37788E-04
 1.70000E+01 6.36141E-04
 1.80000E+01 5.22980E-04
 1.90000E+01 4.64066E-04
 2.00000E+01 4.11609E-04
 2.10000E+01 3.62273E-04
 2.20000E+01 3.23065E-04
 2.30000E+01 2.92861E-04
 2.40000E+01 2.58659E-04
 2.50000E+01 2.34152E-04
 2.60000E+01 2.15910E-04
 2.70000E+01 2.00382E-04
 2.80000E+01 1.81961E-04
 2.90000E+01 1.71194E-04
 3.00000E+01 1.62352E-04
