# n + Pb208: Gamma-ray intensity - 209Pb: Level  5 --> Level  3 - gamma energy    0.582344
# E-initial  =   2.149430 E-final=   1.567086
# E-threshold= 0.00000E+00
# # energies =    67
#    E           xs
 1.00000E-11 0.00000E+00
 2.53000E-08 0.00000E+00
 2.00000E-07 0.00000E+00
 1.00000E-06 1.62717E+00
 1.00000E-03 4.42463E-03
 2.00000E-03 2.53899E-03
 5.00000E-03 1.31217E-03
 1.00000E-02 8.15740E-04
 2.00000E-02 4.80051E-04
 5.00000E-02 2.27963E-04
 1.00000E-01 1.35437E-04
 2.00000E-01 8.76554E-05
 3.00000E-01 7.28141E-05
 4.00000E-01 6.70892E-05
 5.00000E-01 6.54045E-05
 7.50000E-01 6.94898E-05
 1.00000E+00 8.04598E-05
 1.20000E+00 9.30659E-05
 1.40000E+00 1.09438E-04
 1.60000E+00 1.28957E-04
 1.80000E+00 1.52741E-04
 2.00000E+00 1.81376E-04
 2.20000E+00 2.15268E-04
 2.40000E+00 2.55939E-04
 2.60000E+00 3.05292E-04
 2.80000E+00 2.83364E-04
 3.00000E+00 2.89770E-04
 3.20000E+00 3.07686E-04
 3.40000E+00 3.22904E-04
 3.60000E+00 3.41030E-04
 3.80000E+00 3.49757E-04
 4.00000E+00 3.58131E-04
 4.20000E+00 3.25052E-04
 4.40000E+00 2.70943E-04
 4.60000E+00 2.28203E-04
 4.80000E+00 1.95828E-04
 5.00000E+00 1.63525E-04
 5.50000E+00 1.20061E-04
 6.00000E+00 8.99810E-05
 6.50000E+00 7.71707E-05
 7.00000E+00 6.72210E-05
 7.50000E+00 6.67623E-05
 8.00000E+00 7.04049E-05
 8.50000E+00 7.54324E-05
 9.00000E+00 8.88707E-05
 9.50000E+00 1.06284E-04
 1.00000E+01 1.26955E-04
 1.10000E+01 1.74884E-04
 1.20000E+01 2.05397E-04
 1.30000E+01 1.91962E-04
 1.40000E+01 1.59871E-04
 1.50000E+01 1.34205E-04
 1.60000E+01 1.11692E-04
 1.70000E+01 9.78017E-05
 1.80000E+01 7.79092E-05
 1.90000E+01 7.17301E-05
 2.00000E+01 6.40852E-05
 2.10000E+01 5.67662E-05
 2.20000E+01 5.09203E-05
 2.30000E+01 4.64881E-05
 2.40000E+01 4.16064E-05
 2.50000E+01 3.80152E-05
 2.60000E+01 3.53079E-05
 2.70000E+01 3.22409E-05
 2.80000E+01 2.77440E-05
 2.90000E+01 2.61397E-05
 3.00000E+01 2.49774E-05
