# n + Pb208: Gamma-ray intensity - 207Pb: Level  9 --> Level  8 - gamma energy    0.174108
# E-initial  =   2.902000 E-final=   2.727892
# E-threshold= 1.03197E+01
# # energies =    67
#    E           xs
 1.00000E-11 0.00000E+00
 2.53000E-08 0.00000E+00
 2.00000E-07 0.00000E+00
 1.00000E-06 0.00000E+00
 1.00000E-03 0.00000E+00
 2.00000E-03 0.00000E+00
 5.00000E-03 0.00000E+00
 1.00000E-02 0.00000E+00
 2.00000E-02 0.00000E+00
 5.00000E-02 0.00000E+00
 1.00000E-01 0.00000E+00
 2.00000E-01 0.00000E+00
 3.00000E-01 0.00000E+00
 4.00000E-01 0.00000E+00
 5.00000E-01 0.00000E+00
 7.50000E-01 0.00000E+00
 1.00000E+00 0.00000E+00
 1.20000E+00 0.00000E+00
 1.40000E+00 0.00000E+00
 1.60000E+00 0.00000E+00
 1.80000E+00 0.00000E+00
 2.00000E+00 0.00000E+00
 2.20000E+00 0.00000E+00
 2.40000E+00 0.00000E+00
 2.60000E+00 0.00000E+00
 2.80000E+00 0.00000E+00
 3.00000E+00 0.00000E+00
 3.20000E+00 0.00000E+00
 3.40000E+00 0.00000E+00
 3.60000E+00 0.00000E+00
 3.80000E+00 0.00000E+00
 4.00000E+00 0.00000E+00
 4.20000E+00 0.00000E+00
 4.40000E+00 0.00000E+00
 4.60000E+00 0.00000E+00
 4.80000E+00 0.00000E+00
 5.00000E+00 0.00000E+00
 5.50000E+00 0.00000E+00
 6.00000E+00 0.00000E+00
 6.50000E+00 0.00000E+00
 7.00000E+00 0.00000E+00
 7.50000E+00 0.00000E+00
 8.00000E+00 0.00000E+00
 8.50000E+00 0.00000E+00
 9.00000E+00 0.00000E+00
 9.50000E+00 0.00000E+00
 1.00000E+01 0.00000E+00
 1.10000E+01 5.82892E-02
 1.20000E+01 2.45206E-01
 1.30000E+01 3.97291E-01
 1.40000E+01 4.81646E-01
 1.50000E+01 5.24524E-01
 1.60000E+01 5.41119E-01
 1.70000E+01 5.14930E-01
 1.80000E+01 4.42506E-01
 1.90000E+01 3.49022E-01
 2.00000E+01 2.62347E-01
 2.10000E+01 1.97758E-01
 2.20000E+01 1.56436E-01
 2.30000E+01 1.30759E-01
 2.40000E+01 1.15325E-01
 2.50000E+01 1.05378E-01
 2.60000E+01 9.83782E-02
 2.70000E+01 9.29041E-02
 2.80000E+01 8.88345E-02
 2.90000E+01 8.55802E-02
 3.00000E+01 8.20196E-02
