# n + Pb208: Gamma-ray intensity - 208Pb: Level 12 --> Level  7 - gamma energy    0.164185
# E-initial  =   4.125347 E-final=   3.961162
# E-threshold= 4.14535E+00
# # energies =    67
#    E           xs
 1.00000E-11 0.00000E+00
 2.53000E-08 0.00000E+00
 2.00000E-07 0.00000E+00
 1.00000E-06 0.00000E+00
 1.00000E-03 0.00000E+00
 2.00000E-03 0.00000E+00
 5.00000E-03 0.00000E+00
 1.00000E-02 0.00000E+00
 2.00000E-02 0.00000E+00
 5.00000E-02 0.00000E+00
 1.00000E-01 0.00000E+00
 2.00000E-01 0.00000E+00
 3.00000E-01 0.00000E+00
 4.00000E-01 0.00000E+00
 5.00000E-01 0.00000E+00
 7.50000E-01 0.00000E+00
 1.00000E+00 0.00000E+00
 1.20000E+00 0.00000E+00
 1.40000E+00 0.00000E+00
 1.60000E+00 0.00000E+00
 1.80000E+00 0.00000E+00
 2.00000E+00 0.00000E+00
 2.20000E+00 0.00000E+00
 2.40000E+00 0.00000E+00
 2.60000E+00 0.00000E+00
 2.80000E+00 0.00000E+00
 3.00000E+00 0.00000E+00
 3.20000E+00 0.00000E+00
 3.40000E+00 0.00000E+00
 3.60000E+00 0.00000E+00
 3.80000E+00 0.00000E+00
 4.00000E+00 0.00000E+00
 4.20000E+00 7.21704E-01
 4.40000E+00 1.63547E+00
 4.60000E+00 2.20102E+00
 4.80000E+00 2.48398E+00
 5.00000E+00 2.58347E+00
 5.50000E+00 2.54193E+00
 6.00000E+00 2.46042E+00
 6.50000E+00 2.40924E+00
 7.00000E+00 2.39700E+00
 7.50000E+00 2.42811E+00
 8.00000E+00 2.43655E+00
 8.50000E+00 2.32086E+00
 9.00000E+00 2.05680E+00
 9.50000E+00 1.72931E+00
 1.00000E+01 1.40835E+00
 1.10000E+01 9.22437E-01
 1.20000E+01 6.67010E-01
 1.30000E+01 5.48165E-01
 1.40000E+01 4.85812E-01
 1.50000E+01 4.48854E-01
 1.60000E+01 4.21013E-01
 1.70000E+01 4.02268E-01
 1.80000E+01 3.84676E-01
 1.90000E+01 3.69376E-01
 2.00000E+01 3.55221E-01
 2.10000E+01 3.42040E-01
 2.20000E+01 3.29229E-01
 2.30000E+01 3.17245E-01
 2.40000E+01 3.03778E-01
 2.50000E+01 2.92941E-01
 2.60000E+01 2.81891E-01
 2.70000E+01 2.71950E-01
 2.80000E+01 2.63687E-01
 2.90000E+01 2.54830E-01
 3.00000E+01 2.45276E-01
