# n + Pb208: Gamma-ray intensity - 209Pb: Level  2 --> Level  1 - gamma energy    0.643750
# E-initial  =   1.422640 E-final=   0.778890
# E-threshold= 0.00000E+00
# # energies =    67
#    E           xs
 1.00000E-11 0.00000E+00
 2.53000E-08 0.00000E+00
 2.00000E-07 0.00000E+00
 1.00000E-06 0.00000E+00
 1.00000E-03 0.00000E+00
 2.00000E-03 0.00000E+00
 5.00000E-03 0.00000E+00
 1.00000E-02 0.00000E+00
 2.00000E-02 0.00000E+00
 5.00000E-02 6.42170E-12
 1.00000E-01 3.85091E-10
 2.00000E-01 2.48275E-08
 3.00000E-01 1.24678E-06
 4.00000E-01 4.82151E-06
 5.00000E-01 1.30195E-05
 7.50000E-01 5.62779E-05
 1.00000E+00 4.45882E-04
 1.20000E+00 9.47171E-04
 1.40000E+00 1.82654E-03
 1.60000E+00 3.01986E-03
 1.80000E+00 4.63376E-03
 2.00000E+00 6.90408E-03
 2.20000E+00 9.83588E-03
 2.40000E+00 1.37034E-02
 2.60000E+00 1.87955E-02
 2.80000E+00 2.36261E-02
 3.00000E+00 2.60848E-02
 3.20000E+00 2.89283E-02
 3.40000E+00 1.50596E-02
 3.60000E+00 1.22533E-02
 3.80000E+00 1.03497E-02
 4.00000E+00 8.13017E-03
 4.20000E+00 4.94892E-03
 4.40000E+00 4.65898E-03
 4.60000E+00 4.37205E-03
 4.80000E+00 4.39314E-03
 5.00000E+00 4.37702E-03
 5.50000E+00 4.86675E-03
 6.00000E+00 5.52476E-03
 6.50000E+00 6.39522E-03
 7.00000E+00 7.47428E-03
 7.50000E+00 8.67807E-03
 8.00000E+00 1.00038E-02
 8.50000E+00 1.14781E-02
 9.00000E+00 1.31586E-02
 9.50000E+00 1.50709E-02
 1.00000E+01 1.71310E-02
 1.10000E+01 2.08430E-02
 1.20000E+01 2.34567E-02
 1.30000E+01 2.61386E-02
 1.40000E+01 2.90844E-02
 1.50000E+01 3.09142E-02
 1.60000E+01 3.03916E-02
 1.70000E+01 2.79326E-02
 1.80000E+01 2.39895E-02
 1.90000E+01 2.03254E-02
 2.00000E+01 1.70115E-02
 2.10000E+01 1.46033E-02
 2.20000E+01 1.23725E-02
 2.30000E+01 1.07311E-02
 2.40000E+01 9.22109E-03
 2.50000E+01 8.25202E-03
 2.60000E+01 7.44054E-03
 2.70000E+01 6.71457E-03
 2.80000E+01 6.11247E-03
 2.90000E+01 5.75129E-03
 3.00000E+01 5.38735E-03
