# n + Pb208: Gamma-ray intensity - 208Pb: Level 10 --> Level  3 - gamma energy    0.576056
# E-initial  =   4.051134 E-final=   3.475078
# E-threshold= 4.07078E+00
# # energies =    67
#    E           xs
 1.00000E-11 0.00000E+00
 2.53000E-08 0.00000E+00
 2.00000E-07 0.00000E+00
 1.00000E-06 0.00000E+00
 1.00000E-03 0.00000E+00
 2.00000E-03 0.00000E+00
 5.00000E-03 0.00000E+00
 1.00000E-02 0.00000E+00
 2.00000E-02 0.00000E+00
 5.00000E-02 0.00000E+00
 1.00000E-01 0.00000E+00
 2.00000E-01 0.00000E+00
 3.00000E-01 0.00000E+00
 4.00000E-01 0.00000E+00
 5.00000E-01 0.00000E+00
 7.50000E-01 0.00000E+00
 1.00000E+00 0.00000E+00
 1.20000E+00 0.00000E+00
 1.40000E+00 0.00000E+00
 1.60000E+00 0.00000E+00
 1.80000E+00 0.00000E+00
 2.00000E+00 0.00000E+00
 2.20000E+00 0.00000E+00
 2.40000E+00 0.00000E+00
 2.60000E+00 0.00000E+00
 2.80000E+00 0.00000E+00
 3.00000E+00 0.00000E+00
 3.20000E+00 0.00000E+00
 3.40000E+00 0.00000E+00
 3.60000E+00 0.00000E+00
 3.80000E+00 0.00000E+00
 4.00000E+00 0.00000E+00
 4.20000E+00 8.80309E+00
 4.40000E+00 1.45153E+01
 4.60000E+00 1.68460E+01
 4.80000E+00 1.71622E+01
 5.00000E+00 1.66053E+01
 5.50000E+00 1.46812E+01
 6.00000E+00 1.31834E+01
 6.50000E+00 1.19360E+01
 7.00000E+00 1.09830E+01
 7.50000E+00 1.03389E+01
 8.00000E+00 9.18471E+00
 8.50000E+00 7.53873E+00
 9.00000E+00 5.89023E+00
 9.50000E+00 4.46200E+00
 1.00000E+01 3.29880E+00
 1.10000E+01 1.85193E+00
 1.20000E+01 1.21789E+00
 1.30000E+01 9.27664E-01
 1.40000E+01 7.92899E-01
 1.50000E+01 7.05207E-01
 1.60000E+01 6.48248E-01
 1.70000E+01 6.21397E-01
 1.80000E+01 5.89415E-01
 1.90000E+01 5.57615E-01
 2.00000E+01 5.41066E-01
 2.10000E+01 5.15322E-01
 2.20000E+01 5.01583E-01
 2.30000E+01 4.77940E-01
 2.40000E+01 4.59335E-01
 2.50000E+01 4.44979E-01
 2.60000E+01 4.23239E-01
 2.70000E+01 4.08127E-01
 2.80000E+01 3.98626E-01
 2.90000E+01 3.89061E-01
 3.00000E+01 3.67401E-01
