# n + Pb208: Gamma-ray intensity - 208Pb: Level  4 --> Level  3 - gamma energy    0.233373
# E-initial  =   3.708451 E-final=   3.475078
# E-threshold= 3.72644E+00
# # energies =    67
#    E           xs
 1.00000E-11 0.00000E+00
 2.53000E-08 0.00000E+00
 2.00000E-07 0.00000E+00
 1.00000E-06 0.00000E+00
 1.00000E-03 0.00000E+00
 2.00000E-03 0.00000E+00
 5.00000E-03 0.00000E+00
 1.00000E-02 0.00000E+00
 2.00000E-02 0.00000E+00
 5.00000E-02 0.00000E+00
 1.00000E-01 0.00000E+00
 2.00000E-01 0.00000E+00
 3.00000E-01 0.00000E+00
 4.00000E-01 0.00000E+00
 5.00000E-01 0.00000E+00
 7.50000E-01 0.00000E+00
 1.00000E+00 0.00000E+00
 1.20000E+00 0.00000E+00
 1.40000E+00 0.00000E+00
 1.60000E+00 0.00000E+00
 1.80000E+00 0.00000E+00
 2.00000E+00 0.00000E+00
 2.20000E+00 0.00000E+00
 2.40000E+00 0.00000E+00
 2.60000E+00 0.00000E+00
 2.80000E+00 0.00000E+00
 3.00000E+00 0.00000E+00
 3.20000E+00 0.00000E+00
 3.40000E+00 0.00000E+00
 3.60000E+00 0.00000E+00
 3.80000E+00 5.49465E-01
 4.00000E+00 1.45950E+00
 4.20000E+00 2.26898E+00
 4.40000E+00 2.66842E+00
 4.60000E+00 2.89487E+00
 4.80000E+00 3.01537E+00
 5.00000E+00 3.09307E+00
 5.50000E+00 3.24033E+00
 6.00000E+00 3.36439E+00
 6.50000E+00 3.51881E+00
 7.00000E+00 3.73859E+00
 7.50000E+00 4.01160E+00
 8.00000E+00 4.23177E+00
 8.50000E+00 4.24884E+00
 9.00000E+00 3.97524E+00
 9.50000E+00 3.46422E+00
 1.00000E+01 2.85582E+00
 1.10000E+01 1.76487E+00
 1.20000E+01 1.08778E+00
 1.30000E+01 7.67809E-01
 1.40000E+01 6.10402E-01
 1.50000E+01 5.36869E-01
 1.60000E+01 4.91210E-01
 1.70000E+01 4.68437E-01
 1.80000E+01 4.41601E-01
 1.90000E+01 4.17881E-01
 2.00000E+01 3.95689E-01
 2.10000E+01 3.75755E-01
 2.20000E+01 3.58721E-01
 2.30000E+01 3.45291E-01
 2.40000E+01 3.23211E-01
 2.50000E+01 3.08440E-01
 2.60000E+01 2.89357E-01
 2.70000E+01 2.74837E-01
 2.80000E+01 2.65893E-01
 2.90000E+01 2.48834E-01
 3.00000E+01 2.36731E-01
