# n + Pb208: Gamma-ray intensity - 208Pb: Level 15 --> Level  2 - gamma energy    1.008566
# E-initial  =   4.206277 E-final=   3.197711
# E-threshold= 4.22668E+00
# # energies =    67
#    E           xs
 1.00000E-11 0.00000E+00
 2.53000E-08 0.00000E+00
 2.00000E-07 0.00000E+00
 1.00000E-06 0.00000E+00
 1.00000E-03 0.00000E+00
 2.00000E-03 0.00000E+00
 5.00000E-03 0.00000E+00
 1.00000E-02 0.00000E+00
 2.00000E-02 0.00000E+00
 5.00000E-02 0.00000E+00
 1.00000E-01 0.00000E+00
 2.00000E-01 0.00000E+00
 3.00000E-01 0.00000E+00
 4.00000E-01 0.00000E+00
 5.00000E-01 0.00000E+00
 7.50000E-01 0.00000E+00
 1.00000E+00 0.00000E+00
 1.20000E+00 0.00000E+00
 1.40000E+00 0.00000E+00
 1.60000E+00 0.00000E+00
 1.80000E+00 0.00000E+00
 2.00000E+00 0.00000E+00
 2.20000E+00 0.00000E+00
 2.40000E+00 0.00000E+00
 2.60000E+00 0.00000E+00
 2.80000E+00 0.00000E+00
 3.00000E+00 0.00000E+00
 3.20000E+00 0.00000E+00
 3.40000E+00 0.00000E+00
 3.60000E+00 0.00000E+00
 3.80000E+00 0.00000E+00
 4.00000E+00 0.00000E+00
 4.20000E+00 0.00000E+00
 4.40000E+00 1.49319E+01
 4.60000E+00 2.33851E+01
 4.80000E+00 2.90266E+01
 5.00000E+00 3.22876E+01
 5.50000E+00 3.61644E+01
 6.00000E+00 3.95690E+01
 6.50000E+00 4.35054E+01
 7.00000E+00 4.79027E+01
 7.50000E+00 5.28059E+01
 8.00000E+00 5.73235E+01
 8.50000E+00 5.95278E+01
 9.00000E+00 5.70550E+01
 9.50000E+00 5.00387E+01
 1.00000E+01 4.10608E+01
 1.10000E+01 2.45155E+01
 1.20000E+01 1.43126E+01
 1.30000E+01 9.67380E+00
 1.40000E+01 7.43338E+00
 1.50000E+01 6.44728E+00
 1.60000E+01 5.88787E+00
 1.70000E+01 5.62964E+00
 1.80000E+01 5.29946E+00
 1.90000E+01 5.02128E+00
 2.00000E+01 4.75587E+00
 2.10000E+01 4.51439E+00
 2.20000E+01 4.30854E+00
 2.30000E+01 4.19041E+00
 2.40000E+01 3.90284E+00
 2.50000E+01 3.77075E+00
 2.60000E+01 3.50821E+00
 2.70000E+01 3.35234E+00
 2.80000E+01 3.25915E+00
 2.90000E+01 3.01332E+00
 3.00000E+01 2.87769E+00
