# n + Pb208: Gamma-ray intensity - 208Pb: Level 12 --> Level  4 - gamma energy    0.416896
# E-initial  =   4.125347 E-final=   3.708451
# E-threshold= 4.14535E+00
# # energies =    67
#    E           xs
 1.00000E-11 0.00000E+00
 2.53000E-08 0.00000E+00
 2.00000E-07 0.00000E+00
 1.00000E-06 0.00000E+00
 1.00000E-03 0.00000E+00
 2.00000E-03 0.00000E+00
 5.00000E-03 0.00000E+00
 1.00000E-02 0.00000E+00
 2.00000E-02 0.00000E+00
 5.00000E-02 0.00000E+00
 1.00000E-01 0.00000E+00
 2.00000E-01 0.00000E+00
 3.00000E-01 0.00000E+00
 4.00000E-01 0.00000E+00
 5.00000E-01 0.00000E+00
 7.50000E-01 0.00000E+00
 1.00000E+00 0.00000E+00
 1.20000E+00 0.00000E+00
 1.40000E+00 0.00000E+00
 1.60000E+00 0.00000E+00
 1.80000E+00 0.00000E+00
 2.00000E+00 0.00000E+00
 2.20000E+00 0.00000E+00
 2.40000E+00 0.00000E+00
 2.60000E+00 0.00000E+00
 2.80000E+00 0.00000E+00
 3.00000E+00 0.00000E+00
 3.20000E+00 0.00000E+00
 3.40000E+00 0.00000E+00
 3.60000E+00 0.00000E+00
 3.80000E+00 0.00000E+00
 4.00000E+00 0.00000E+00
 4.20000E+00 7.36429E-01
 4.40000E+00 1.66884E+00
 4.60000E+00 2.24593E+00
 4.80000E+00 2.53466E+00
 5.00000E+00 2.63618E+00
 5.50000E+00 2.59379E+00
 6.00000E+00 2.51062E+00
 6.50000E+00 2.45840E+00
 7.00000E+00 2.44590E+00
 7.50000E+00 2.47765E+00
 8.00000E+00 2.48626E+00
 8.50000E+00 2.36821E+00
 9.00000E+00 2.09876E+00
 9.50000E+00 1.76459E+00
 1.00000E+01 1.43709E+00
 1.10000E+01 9.41256E-01
 1.20000E+01 6.80618E-01
 1.30000E+01 5.59348E-01
 1.40000E+01 4.95723E-01
 1.50000E+01 4.58012E-01
 1.60000E+01 4.29603E-01
 1.70000E+01 4.10476E-01
 1.80000E+01 3.92524E-01
 1.90000E+01 3.76912E-01
 2.00000E+01 3.62468E-01
 2.10000E+01 3.49019E-01
 2.20000E+01 3.35946E-01
 2.30000E+01 3.23717E-01
 2.40000E+01 3.09976E-01
 2.50000E+01 2.98917E-01
 2.60000E+01 2.87642E-01
 2.70000E+01 2.77498E-01
 2.80000E+01 2.69067E-01
 2.90000E+01 2.60029E-01
 3.00000E+01 2.50280E-01
