# n + Pb208: Gamma-ray intensity - 208Pb: Level  5 --> Level  2 - gamma energy    0.722255
# E-initial  =   3.919966 E-final=   3.197711
# E-threshold= 3.93898E+00
# # energies =    67
#    E           xs
 1.00000E-11 0.00000E+00
 2.53000E-08 0.00000E+00
 2.00000E-07 0.00000E+00
 1.00000E-06 0.00000E+00
 1.00000E-03 0.00000E+00
 2.00000E-03 0.00000E+00
 5.00000E-03 0.00000E+00
 1.00000E-02 0.00000E+00
 2.00000E-02 0.00000E+00
 5.00000E-02 0.00000E+00
 1.00000E-01 0.00000E+00
 2.00000E-01 0.00000E+00
 3.00000E-01 0.00000E+00
 4.00000E-01 0.00000E+00
 5.00000E-01 0.00000E+00
 7.50000E-01 0.00000E+00
 1.00000E+00 0.00000E+00
 1.20000E+00 0.00000E+00
 1.40000E+00 0.00000E+00
 1.60000E+00 0.00000E+00
 1.80000E+00 0.00000E+00
 2.00000E+00 0.00000E+00
 2.20000E+00 0.00000E+00
 2.40000E+00 0.00000E+00
 2.60000E+00 0.00000E+00
 2.80000E+00 0.00000E+00
 3.00000E+00 0.00000E+00
 3.20000E+00 0.00000E+00
 3.40000E+00 0.00000E+00
 3.60000E+00 0.00000E+00
 3.80000E+00 0.00000E+00
 4.00000E+00 6.83320E+00
 4.20000E+00 1.45074E+01
 4.40000E+00 1.89974E+01
 4.60000E+00 2.27104E+01
 4.80000E+00 2.56642E+01
 5.00000E+00 2.83581E+01
 5.50000E+00 3.53556E+01
 6.00000E+00 4.30232E+01
 6.50000E+00 5.14254E+01
 7.00000E+00 6.08353E+01
 7.50000E+00 7.10912E+01
 8.00000E+00 8.09827E+01
 8.50000E+00 8.83242E+01
 9.00000E+00 8.96975E+01
 9.50000E+00 8.34145E+01
 1.00000E+01 7.22580E+01
 1.10000E+01 4.73381E+01
 1.20000E+01 2.91830E+01
 1.30000E+01 2.02192E+01
 1.40000E+01 1.57095E+01
 1.50000E+01 1.37169E+01
 1.60000E+01 1.25554E+01
 1.70000E+01 1.20605E+01
 1.80000E+01 1.14073E+01
 1.90000E+01 1.08233E+01
 2.00000E+01 1.02555E+01
 2.10000E+01 9.72614E+00
 2.20000E+01 9.30923E+00
 2.30000E+01 8.99742E+00
 2.40000E+01 8.38683E+00
 2.50000E+01 8.01281E+00
 2.60000E+01 7.46024E+00
 2.70000E+01 7.06033E+00
 2.80000E+01 6.83413E+00
 2.90000E+01 6.27643E+00
 3.00000E+01 5.96096E+00
