# n + Pb208: Gamma-ray intensity - 208Pb: Level  6 --> Level  2 - gamma energy    0.748867
# E-initial  =   3.946578 E-final=   3.197711
# E-threshold= 3.96572E+00
# # energies =    67
#    E           xs
 1.00000E-11 0.00000E+00
 2.53000E-08 0.00000E+00
 2.00000E-07 0.00000E+00
 1.00000E-06 0.00000E+00
 1.00000E-03 0.00000E+00
 2.00000E-03 0.00000E+00
 5.00000E-03 0.00000E+00
 1.00000E-02 0.00000E+00
 2.00000E-02 0.00000E+00
 5.00000E-02 0.00000E+00
 1.00000E-01 0.00000E+00
 2.00000E-01 0.00000E+00
 3.00000E-01 0.00000E+00
 4.00000E-01 0.00000E+00
 5.00000E-01 0.00000E+00
 7.50000E-01 0.00000E+00
 1.00000E+00 0.00000E+00
 1.20000E+00 0.00000E+00
 1.40000E+00 0.00000E+00
 1.60000E+00 0.00000E+00
 1.80000E+00 0.00000E+00
 2.00000E+00 0.00000E+00
 2.20000E+00 0.00000E+00
 2.40000E+00 0.00000E+00
 2.60000E+00 0.00000E+00
 2.80000E+00 0.00000E+00
 3.00000E+00 0.00000E+00
 3.20000E+00 0.00000E+00
 3.40000E+00 0.00000E+00
 3.60000E+00 0.00000E+00
 3.80000E+00 0.00000E+00
 4.00000E+00 1.58884E+01
 4.20000E+00 4.54363E+01
 4.40000E+00 6.17037E+01
 4.60000E+00 6.80074E+01
 4.80000E+00 6.88445E+01
 5.00000E+00 6.74592E+01
 5.50000E+00 6.24757E+01
 6.00000E+00 5.78775E+01
 6.50000E+00 5.39160E+01
 7.00000E+00 5.12212E+01
 7.50000E+00 4.97154E+01
 8.00000E+00 4.67763E+01
 8.50000E+00 4.08388E+01
 9.00000E+00 3.32397E+01
 9.50000E+00 2.56937E+01
 1.00000E+01 1.91458E+01
 1.10000E+01 1.03815E+01
 1.20000E+01 6.24461E+00
 1.30000E+01 4.41815E+00
 1.40000E+01 3.56912E+00
 1.50000E+01 3.12275E+00
 1.60000E+01 2.82197E+00
 1.70000E+01 2.66502E+00
 1.80000E+01 2.49144E+00
 1.90000E+01 2.33612E+00
 2.00000E+01 2.21499E+00
 2.10000E+01 2.10608E+00
 2.20000E+01 2.01465E+00
 2.30000E+01 1.92215E+00
 2.40000E+01 1.81287E+00
 2.50000E+01 1.73090E+00
 2.60000E+01 1.64179E+00
 2.70000E+01 1.56048E+00
 2.80000E+01 1.51106E+00
 2.90000E+01 1.46091E+00
 3.00000E+01 1.37585E+00
