# n + Pb208: Gamma-ray intensity - 209Pb: Level  8 --> Level  3 - gamma energy    0.893914
# E-initial  =   2.461000 E-final=   1.567086
# E-threshold= 0.00000E+00
# # energies =    67
#    E           xs
 1.00000E-11 0.00000E+00
 2.53000E-08 0.00000E+00
 2.00000E-07 0.00000E+00
 1.00000E-06 4.67963E-01
 1.00000E-03 4.72899E-02
 2.00000E-03 3.10443E-02
 5.00000E-03 2.13145E-02
 1.00000E-02 1.61771E-02
 2.00000E-02 1.06803E-02
 5.00000E-02 5.77417E-03
 1.00000E-01 4.13765E-03
 2.00000E-01 3.40834E-03
 3.00000E-01 3.21144E-03
 4.00000E-01 3.15413E-03
 5.00000E-01 3.18293E-03
 7.50000E-01 3.51338E-03
 1.00000E+00 4.13027E-03
 1.20000E+00 4.82021E-03
 1.40000E+00 5.68479E-03
 1.60000E+00 6.72866E-03
 1.80000E+00 7.99854E-03
 2.00000E+00 9.51413E-03
 2.20000E+00 1.13082E-02
 2.40000E+00 1.34673E-02
 2.60000E+00 1.60132E-02
 2.80000E+00 1.16503E-02
 3.00000E+00 1.10601E-02
 3.20000E+00 1.13743E-02
 3.40000E+00 1.15590E-02
 3.60000E+00 1.17111E-02
 3.80000E+00 1.17104E-02
 4.00000E+00 1.16712E-02
 4.20000E+00 1.02840E-02
 4.40000E+00 8.60986E-03
 4.60000E+00 7.33047E-03
 4.80000E+00 6.31710E-03
 5.00000E+00 5.34416E-03
 5.50000E+00 3.87042E-03
 6.00000E+00 2.83087E-03
 6.50000E+00 2.28703E-03
 7.00000E+00 1.87001E-03
 7.50000E+00 1.68208E-03
 8.00000E+00 1.59456E-03
 8.50000E+00 1.52611E-03
 9.00000E+00 1.61211E-03
 9.50000E+00 1.77551E-03
 1.00000E+01 2.03605E-03
 1.10000E+01 2.67542E-03
 1.20000E+01 3.37091E-03
 1.30000E+01 3.48913E-03
 1.40000E+01 2.99478E-03
 1.50000E+01 2.60601E-03
 1.60000E+01 2.21818E-03
 1.70000E+01 2.01139E-03
 1.80000E+01 1.61084E-03
 1.90000E+01 1.46392E-03
 2.00000E+01 1.31668E-03
 2.10000E+01 1.15982E-03
 2.20000E+01 1.03482E-03
 2.30000E+01 9.39460E-04
 2.40000E+01 8.17934E-04
 2.50000E+01 7.35432E-04
 2.60000E+01 6.75582E-04
 2.70000E+01 6.26553E-04
 2.80000E+01 5.21567E-04
 2.90000E+01 4.85470E-04
 3.00000E+01 4.57686E-04
