# n + Pb208: Gamma-ray intensity - 208Pb: Level 12 --> Level  2 - gamma energy    0.927636
# E-initial  =   4.125347 E-final=   3.197711
# E-threshold= 4.14535E+00
# # energies =    67
#    E           xs
 1.00000E-11 0.00000E+00
 2.53000E-08 0.00000E+00
 2.00000E-07 0.00000E+00
 1.00000E-06 0.00000E+00
 1.00000E-03 0.00000E+00
 2.00000E-03 0.00000E+00
 5.00000E-03 0.00000E+00
 1.00000E-02 0.00000E+00
 2.00000E-02 0.00000E+00
 5.00000E-02 0.00000E+00
 1.00000E-01 0.00000E+00
 2.00000E-01 0.00000E+00
 3.00000E-01 0.00000E+00
 4.00000E-01 0.00000E+00
 5.00000E-01 0.00000E+00
 7.50000E-01 0.00000E+00
 1.00000E+00 0.00000E+00
 1.20000E+00 0.00000E+00
 1.40000E+00 0.00000E+00
 1.60000E+00 0.00000E+00
 1.80000E+00 0.00000E+00
 2.00000E+00 0.00000E+00
 2.20000E+00 0.00000E+00
 2.40000E+00 0.00000E+00
 2.60000E+00 0.00000E+00
 2.80000E+00 0.00000E+00
 3.00000E+00 0.00000E+00
 3.20000E+00 0.00000E+00
 3.40000E+00 0.00000E+00
 3.60000E+00 0.00000E+00
 3.80000E+00 0.00000E+00
 4.00000E+00 0.00000E+00
 4.20000E+00 1.47284E+01
 4.40000E+00 3.33765E+01
 4.60000E+00 4.49181E+01
 4.80000E+00 5.06927E+01
 5.00000E+00 5.27230E+01
 5.50000E+00 5.18753E+01
 6.00000E+00 5.02119E+01
 6.50000E+00 4.91675E+01
 7.00000E+00 4.89175E+01
 7.50000E+00 4.95525E+01
 8.00000E+00 4.97248E+01
 8.50000E+00 4.73638E+01
 9.00000E+00 4.19748E+01
 9.50000E+00 3.52915E+01
 1.00000E+01 2.87415E+01
 1.10000E+01 1.88249E+01
 1.20000E+01 1.36122E+01
 1.30000E+01 1.11869E+01
 1.40000E+01 9.91436E+00
 1.50000E+01 9.16015E+00
 1.60000E+01 8.59197E+00
 1.70000E+01 8.20943E+00
 1.80000E+01 7.85040E+00
 1.90000E+01 7.53816E+00
 2.00000E+01 7.24929E+00
 2.10000E+01 6.98030E+00
 2.20000E+01 6.71886E+00
 2.30000E+01 6.47428E+00
 2.40000E+01 6.19946E+00
 2.50000E+01 5.97829E+00
 2.60000E+01 5.75278E+00
 2.70000E+01 5.54990E+00
 2.80000E+01 5.38128E+00
 2.90000E+01 5.20053E+00
 3.00000E+01 5.00556E+00
