# n + Pb208: Gamma-ray intensity - 208Pb: Level 11 --> Level  1 - gamma energy    1.470998
# E-initial  =   4.085520 E-final=   2.614522
# E-threshold= 4.10533E+00
# # energies =    67
#    E           xs
 1.00000E-11 0.00000E+00
 2.53000E-08 0.00000E+00
 2.00000E-07 0.00000E+00
 1.00000E-06 0.00000E+00
 1.00000E-03 0.00000E+00
 2.00000E-03 0.00000E+00
 5.00000E-03 0.00000E+00
 1.00000E-02 0.00000E+00
 2.00000E-02 0.00000E+00
 5.00000E-02 0.00000E+00
 1.00000E-01 0.00000E+00
 2.00000E-01 0.00000E+00
 3.00000E-01 0.00000E+00
 4.00000E-01 0.00000E+00
 5.00000E-01 0.00000E+00
 7.50000E-01 0.00000E+00
 1.00000E+00 0.00000E+00
 1.20000E+00 0.00000E+00
 1.40000E+00 0.00000E+00
 1.60000E+00 0.00000E+00
 1.80000E+00 0.00000E+00
 2.00000E+00 0.00000E+00
 2.20000E+00 0.00000E+00
 2.40000E+00 0.00000E+00
 2.60000E+00 0.00000E+00
 2.80000E+00 0.00000E+00
 3.00000E+00 0.00000E+00
 3.20000E+00 0.00000E+00
 3.40000E+00 0.00000E+00
 3.60000E+00 0.00000E+00
 3.80000E+00 0.00000E+00
 4.00000E+00 0.00000E+00
 4.20000E+00 1.82882E-01
 4.40000E+00 4.10181E-01
 4.60000E+00 4.93210E-01
 4.80000E+00 5.00606E-01
 5.00000E+00 4.81066E-01
 5.50000E+00 4.29394E-01
 6.00000E+00 3.86260E-01
 6.50000E+00 3.33383E-01
 7.00000E+00 2.89834E-01
 7.50000E+00 2.62944E-01
 8.00000E+00 2.23190E-01
 8.50000E+00 1.77575E-01
 9.00000E+00 1.35692E-01
 9.50000E+00 1.00773E-01
 1.00000E+01 7.39636E-02
 1.10000E+01 4.17485E-02
 1.20000E+01 2.70379E-02
 1.30000E+01 2.04110E-02
 1.40000E+01 1.74898E-02
 1.50000E+01 1.54623E-02
 1.60000E+01 1.41743E-02
 1.70000E+01 1.37324E-02
 1.80000E+01 1.28828E-02
 1.90000E+01 1.20605E-02
 2.00000E+01 1.19222E-02
 2.10000E+01 1.11457E-02
 2.20000E+01 1.10850E-02
 2.30000E+01 1.04470E-02
 2.40000E+01 1.01197E-02
 2.50000E+01 9.95340E-03
 2.60000E+01 9.34597E-03
 2.70000E+01 8.93004E-03
 2.80000E+01 8.79181E-03
 2.90000E+01 8.63845E-03
 3.00000E+01 8.16711E-03
