# n + Pb208: Gamma-ray intensity - 208Pb: Level 15 --> Level  4 - gamma energy    0.497826
# E-initial  =   4.206277 E-final=   3.708451
# E-threshold= 4.22668E+00
# # energies =    67
#    E           xs
 1.00000E-11 0.00000E+00
 2.53000E-08 0.00000E+00
 2.00000E-07 0.00000E+00
 1.00000E-06 0.00000E+00
 1.00000E-03 0.00000E+00
 2.00000E-03 0.00000E+00
 5.00000E-03 0.00000E+00
 1.00000E-02 0.00000E+00
 2.00000E-02 0.00000E+00
 5.00000E-02 0.00000E+00
 1.00000E-01 0.00000E+00
 2.00000E-01 0.00000E+00
 3.00000E-01 0.00000E+00
 4.00000E-01 0.00000E+00
 5.00000E-01 0.00000E+00
 7.50000E-01 0.00000E+00
 1.00000E+00 0.00000E+00
 1.20000E+00 0.00000E+00
 1.40000E+00 0.00000E+00
 1.60000E+00 0.00000E+00
 1.80000E+00 0.00000E+00
 2.00000E+00 0.00000E+00
 2.20000E+00 0.00000E+00
 2.40000E+00 0.00000E+00
 2.60000E+00 0.00000E+00
 2.80000E+00 0.00000E+00
 3.00000E+00 0.00000E+00
 3.20000E+00 0.00000E+00
 3.40000E+00 0.00000E+00
 3.60000E+00 0.00000E+00
 3.80000E+00 0.00000E+00
 4.00000E+00 0.00000E+00
 4.20000E+00 0.00000E+00
 4.40000E+00 3.07653E+00
 4.60000E+00 4.81820E+00
 4.80000E+00 5.98057E+00
 5.00000E+00 6.65246E+00
 5.50000E+00 7.45123E+00
 6.00000E+00 8.15269E+00
 6.50000E+00 8.96374E+00
 7.00000E+00 9.86975E+00
 7.50000E+00 1.08800E+01
 8.00000E+00 1.18108E+01
 8.50000E+00 1.22649E+01
 9.00000E+00 1.17555E+01
 9.50000E+00 1.03098E+01
 1.00000E+01 8.46006E+00
 1.10000E+01 5.05110E+00
 1.20000E+01 2.94892E+00
 1.30000E+01 1.99317E+00
 1.40000E+01 1.53155E+00
 1.50000E+01 1.32838E+00
 1.60000E+01 1.21312E+00
 1.70000E+01 1.15992E+00
 1.80000E+01 1.09189E+00
 1.90000E+01 1.03457E+00
 2.00000E+01 9.79888E-01
 2.10000E+01 9.30133E-01
 2.20000E+01 8.87721E-01
 2.30000E+01 8.63381E-01
 2.40000E+01 8.04131E-01
 2.50000E+01 7.76916E-01
 2.60000E+01 7.22822E-01
 2.70000E+01 6.90707E-01
 2.80000E+01 6.71506E-01
 2.90000E+01 6.20856E-01
 3.00000E+01 5.92912E-01
