# n + Pb208: Gamma-ray intensity - 207Pb: Level  4 --> Level  1 - gamma energy    1.770223
# E-initial  =   2.339921 E-final=   0.569698
# E-threshold= 9.75488E+00
# # energies =    67
#    E           xs
 1.00000E-11 0.00000E+00
 2.53000E-08 0.00000E+00
 2.00000E-07 0.00000E+00
 1.00000E-06 0.00000E+00
 1.00000E-03 0.00000E+00
 2.00000E-03 0.00000E+00
 5.00000E-03 0.00000E+00
 1.00000E-02 0.00000E+00
 2.00000E-02 0.00000E+00
 5.00000E-02 0.00000E+00
 1.00000E-01 0.00000E+00
 2.00000E-01 0.00000E+00
 3.00000E-01 0.00000E+00
 4.00000E-01 0.00000E+00
 5.00000E-01 0.00000E+00
 7.50000E-01 0.00000E+00
 1.00000E+00 0.00000E+00
 1.20000E+00 0.00000E+00
 1.40000E+00 0.00000E+00
 1.60000E+00 0.00000E+00
 1.80000E+00 0.00000E+00
 2.00000E+00 0.00000E+00
 2.20000E+00 0.00000E+00
 2.40000E+00 0.00000E+00
 2.60000E+00 0.00000E+00
 2.80000E+00 0.00000E+00
 3.00000E+00 0.00000E+00
 3.20000E+00 0.00000E+00
 3.40000E+00 0.00000E+00
 3.60000E+00 0.00000E+00
 3.80000E+00 0.00000E+00
 4.00000E+00 0.00000E+00
 4.20000E+00 0.00000E+00
 4.40000E+00 0.00000E+00
 4.60000E+00 0.00000E+00
 4.80000E+00 0.00000E+00
 5.00000E+00 0.00000E+00
 5.50000E+00 0.00000E+00
 6.00000E+00 0.00000E+00
 6.50000E+00 0.00000E+00
 7.00000E+00 0.00000E+00
 7.50000E+00 0.00000E+00
 8.00000E+00 0.00000E+00
 8.50000E+00 0.00000E+00
 9.00000E+00 0.00000E+00
 9.50000E+00 0.00000E+00
 1.00000E+01 1.60244E+00
 1.10000E+01 4.40750E+01
 1.20000E+01 1.07461E+02
 1.30000E+01 1.54521E+02
 1.40000E+01 1.73804E+02
 1.50000E+01 1.76619E+02
 1.60000E+01 1.68594E+02
 1.70000E+01 1.47405E+02
 1.80000E+01 1.18157E+02
 1.90000E+01 8.93438E+01
 2.00000E+01 6.66789E+01
 2.10000E+01 5.09250E+01
 2.20000E+01 4.11272E+01
 2.30000E+01 3.49627E+01
 2.40000E+01 3.11665E+01
 2.50000E+01 2.86443E+01
 2.60000E+01 2.67654E+01
 2.70000E+01 2.52848E+01
 2.80000E+01 2.41007E+01
 2.90000E+01 2.31675E+01
 3.00000E+01 2.21578E+01
