# n + Pb208: Gamma-ray intensity - 208Pb: Level  6 --> Level  4 - gamma energy    0.238127
# E-initial  =   3.946578 E-final=   3.708451
# E-threshold= 3.96572E+00
# # energies =    67
#    E           xs
 1.00000E-11 0.00000E+00
 2.53000E-08 0.00000E+00
 2.00000E-07 0.00000E+00
 1.00000E-06 0.00000E+00
 1.00000E-03 0.00000E+00
 2.00000E-03 0.00000E+00
 5.00000E-03 0.00000E+00
 1.00000E-02 0.00000E+00
 2.00000E-02 0.00000E+00
 5.00000E-02 0.00000E+00
 1.00000E-01 0.00000E+00
 2.00000E-01 0.00000E+00
 3.00000E-01 0.00000E+00
 4.00000E-01 0.00000E+00
 5.00000E-01 0.00000E+00
 7.50000E-01 0.00000E+00
 1.00000E+00 0.00000E+00
 1.20000E+00 0.00000E+00
 1.40000E+00 0.00000E+00
 1.60000E+00 0.00000E+00
 1.80000E+00 0.00000E+00
 2.00000E+00 0.00000E+00
 2.20000E+00 0.00000E+00
 2.40000E+00 0.00000E+00
 2.60000E+00 0.00000E+00
 2.80000E+00 0.00000E+00
 3.00000E+00 0.00000E+00
 3.20000E+00 0.00000E+00
 3.40000E+00 0.00000E+00
 3.60000E+00 0.00000E+00
 3.80000E+00 0.00000E+00
 4.00000E+00 4.02017E+00
 4.20000E+00 1.14965E+01
 4.40000E+00 1.56126E+01
 4.60000E+00 1.72076E+01
 4.80000E+00 1.74194E+01
 5.00000E+00 1.70689E+01
 5.50000E+00 1.58079E+01
 6.00000E+00 1.46445E+01
 6.50000E+00 1.36421E+01
 7.00000E+00 1.29602E+01
 7.50000E+00 1.25792E+01
 8.00000E+00 1.18356E+01
 8.50000E+00 1.03332E+01
 9.00000E+00 8.41047E+00
 9.50000E+00 6.50115E+00
 1.00000E+01 4.84437E+00
 1.10000E+01 2.62677E+00
 1.20000E+01 1.58004E+00
 1.30000E+01 1.11790E+00
 1.40000E+01 9.03077E-01
 1.50000E+01 7.90135E-01
 1.60000E+01 7.14028E-01
 1.70000E+01 6.74316E-01
 1.80000E+01 6.30396E-01
 1.90000E+01 5.91097E-01
 2.00000E+01 5.60447E-01
 2.10000E+01 5.32890E-01
 2.20000E+01 5.09758E-01
 2.30000E+01 4.86351E-01
 2.40000E+01 4.58702E-01
 2.50000E+01 4.37962E-01
 2.60000E+01 4.15413E-01
 2.70000E+01 3.94840E-01
 2.80000E+01 3.82337E-01
 2.90000E+01 3.69647E-01
 3.00000E+01 3.48125E-01
