# n + Pb208: Gamma-ray intensity - 209Pb: Level  5 --> Level  4 - gamma energy    0.117220
# E-initial  =   2.149430 E-final=   2.032210
# E-threshold= 0.00000E+00
# # energies =    67
#    E           xs
 1.00000E-11 0.00000E+00
 2.53000E-08 0.00000E+00
 2.00000E-07 0.00000E+00
 1.00000E-06 4.17206E+02
 1.00000E-03 1.13448E+00
 2.00000E-03 6.50997E-01
 5.00000E-03 3.36442E-01
 1.00000E-02 2.09156E-01
 2.00000E-02 1.23085E-01
 5.00000E-02 5.84498E-02
 1.00000E-01 3.47261E-02
 2.00000E-01 2.24749E-02
 3.00000E-01 1.86696E-02
 4.00000E-01 1.72017E-02
 5.00000E-01 1.67697E-02
 7.50000E-01 1.78172E-02
 1.00000E+00 2.06299E-02
 1.20000E+00 2.38621E-02
 1.40000E+00 2.80598E-02
 1.60000E+00 3.30647E-02
 1.80000E+00 3.91629E-02
 2.00000E+00 4.65049E-02
 2.20000E+00 5.51949E-02
 2.40000E+00 6.56229E-02
 2.60000E+00 7.82771E-02
 2.80000E+00 7.26547E-02
 3.00000E+00 7.42971E-02
 3.20000E+00 7.88909E-02
 3.40000E+00 8.27926E-02
 3.60000E+00 8.74403E-02
 3.80000E+00 8.96777E-02
 4.00000E+00 9.18250E-02
 4.20000E+00 8.33435E-02
 4.40000E+00 6.94698E-02
 4.60000E+00 5.85114E-02
 4.80000E+00 5.02103E-02
 5.00000E+00 4.19280E-02
 5.50000E+00 3.07837E-02
 6.00000E+00 2.30712E-02
 6.50000E+00 1.97866E-02
 7.00000E+00 1.72355E-02
 7.50000E+00 1.71179E-02
 8.00000E+00 1.80518E-02
 8.50000E+00 1.93409E-02
 9.00000E+00 2.27865E-02
 9.50000E+00 2.72512E-02
 1.00000E+01 3.25514E-02
 1.10000E+01 4.48404E-02
 1.20000E+01 5.26638E-02
 1.30000E+01 4.92190E-02
 1.40000E+01 4.09911E-02
 1.50000E+01 3.44102E-02
 1.60000E+01 2.86379E-02
 1.70000E+01 2.50764E-02
 1.80000E+01 1.99760E-02
 1.90000E+01 1.83916E-02
 2.00000E+01 1.64315E-02
 2.10000E+01 1.45549E-02
 2.20000E+01 1.30560E-02
 2.30000E+01 1.19196E-02
 2.40000E+01 1.06679E-02
 2.50000E+01 9.74710E-03
 2.60000E+01 9.05295E-03
 2.70000E+01 8.26659E-03
 2.80000E+01 7.11358E-03
 2.90000E+01 6.70223E-03
 3.00000E+01 6.40420E-03
