# n + Pb208: Gamma-ray intensity - 208Pb: Level 14 --> Level  2 - gamma energy    0.982703
# E-initial  =   4.180414 E-final=   3.197711
# E-threshold= 4.20069E+00
# # energies =    67
#    E           xs
 1.00000E-11 0.00000E+00
 2.53000E-08 0.00000E+00
 2.00000E-07 0.00000E+00
 1.00000E-06 0.00000E+00
 1.00000E-03 0.00000E+00
 2.00000E-03 0.00000E+00
 5.00000E-03 0.00000E+00
 1.00000E-02 0.00000E+00
 2.00000E-02 0.00000E+00
 5.00000E-02 0.00000E+00
 1.00000E-01 0.00000E+00
 2.00000E-01 0.00000E+00
 3.00000E-01 0.00000E+00
 4.00000E-01 0.00000E+00
 5.00000E-01 0.00000E+00
 7.50000E-01 0.00000E+00
 1.00000E+00 0.00000E+00
 1.20000E+00 0.00000E+00
 1.40000E+00 0.00000E+00
 1.60000E+00 0.00000E+00
 1.80000E+00 0.00000E+00
 2.00000E+00 0.00000E+00
 2.20000E+00 0.00000E+00
 2.40000E+00 0.00000E+00
 2.60000E+00 0.00000E+00
 2.80000E+00 0.00000E+00
 3.00000E+00 0.00000E+00
 3.20000E+00 0.00000E+00
 3.40000E+00 0.00000E+00
 3.60000E+00 0.00000E+00
 3.80000E+00 0.00000E+00
 4.00000E+00 0.00000E+00
 4.20000E+00 0.00000E+00
 4.40000E+00 3.43018E+01
 4.60000E+00 4.99016E+01
 4.80000E+00 5.80396E+01
 5.00000E+00 6.08979E+01
 5.50000E+00 5.90673E+01
 6.00000E+00 5.58895E+01
 6.50000E+00 5.36423E+01
 7.00000E+00 5.23974E+01
 7.50000E+00 5.23836E+01
 8.00000E+00 5.20571E+01
 8.50000E+00 4.89221E+01
 9.00000E+00 4.23516E+01
 9.50000E+00 3.44013E+01
 1.00000E+01 2.67282E+01
 1.10000E+01 1.52966E+01
 1.20000E+01 9.40030E+00
 1.30000E+01 6.74444E+00
 1.40000E+01 5.47286E+00
 1.50000E+01 4.85254E+00
 1.60000E+01 4.45017E+00
 1.70000E+01 4.23808E+00
 1.80000E+01 4.01373E+00
 1.90000E+01 3.81993E+00
 2.00000E+01 3.64718E+00
 2.10000E+01 3.50175E+00
 2.20000E+01 3.36901E+00
 2.30000E+01 3.25009E+00
 2.40000E+01 3.08290E+00
 2.50000E+01 2.96403E+00
 2.60000E+01 2.82348E+00
 2.70000E+01 2.69762E+00
 2.80000E+01 2.60700E+00
 2.90000E+01 2.49908E+00
 3.00000E+01 2.36823E+00
