# n + Pb208: Gamma-ray intensity - 208Pb: Level  4 --> Level  2 - gamma energy    0.510740
# E-initial  =   3.708451 E-final=   3.197711
# E-threshold= 3.72644E+00
# # energies =    67
#    E           xs
 1.00000E-11 0.00000E+00
 2.53000E-08 0.00000E+00
 2.00000E-07 0.00000E+00
 1.00000E-06 0.00000E+00
 1.00000E-03 0.00000E+00
 2.00000E-03 0.00000E+00
 5.00000E-03 0.00000E+00
 1.00000E-02 0.00000E+00
 2.00000E-02 0.00000E+00
 5.00000E-02 0.00000E+00
 1.00000E-01 0.00000E+00
 2.00000E-01 0.00000E+00
 3.00000E-01 0.00000E+00
 4.00000E-01 0.00000E+00
 5.00000E-01 0.00000E+00
 7.50000E-01 0.00000E+00
 1.00000E+00 0.00000E+00
 1.20000E+00 0.00000E+00
 1.40000E+00 0.00000E+00
 1.60000E+00 0.00000E+00
 1.80000E+00 0.00000E+00
 2.00000E+00 0.00000E+00
 2.20000E+00 0.00000E+00
 2.40000E+00 0.00000E+00
 2.60000E+00 0.00000E+00
 2.80000E+00 0.00000E+00
 3.00000E+00 0.00000E+00
 3.20000E+00 0.00000E+00
 3.40000E+00 0.00000E+00
 3.60000E+00 0.00000E+00
 3.80000E+00 4.04016E+01
 4.00000E+00 1.07316E+02
 4.20000E+00 1.66836E+02
 4.40000E+00 1.96207E+02
 4.60000E+00 2.12857E+02
 4.80000E+00 2.21717E+02
 5.00000E+00 2.27430E+02
 5.50000E+00 2.38258E+02
 6.00000E+00 2.47381E+02
 6.50000E+00 2.58735E+02
 7.00000E+00 2.74895E+02
 7.50000E+00 2.94969E+02
 8.00000E+00 3.11158E+02
 8.50000E+00 3.12413E+02
 9.00000E+00 2.92296E+02
 9.50000E+00 2.54721E+02
 1.00000E+01 2.09985E+02
 1.10000E+01 1.29769E+02
 1.20000E+01 7.99834E+01
 1.30000E+01 5.64563E+01
 1.40000E+01 4.48823E+01
 1.50000E+01 3.94755E+01
 1.60000E+01 3.61182E+01
 1.70000E+01 3.44437E+01
 1.80000E+01 3.24705E+01
 1.90000E+01 3.07264E+01
 2.00000E+01 2.90947E+01
 2.10000E+01 2.76289E+01
 2.20000E+01 2.63765E+01
 2.30000E+01 2.53889E+01
 2.40000E+01 2.37654E+01
 2.50000E+01 2.26793E+01
 2.60000E+01 2.12762E+01
 2.70000E+01 2.02085E+01
 2.80000E+01 1.95508E+01
 2.90000E+01 1.82966E+01
 3.00000E+01 1.74066E+01
