# n + Pb208: Gamma-ray intensity - 209Pb: Level 10 --> Level  5 - gamma energy    0.375500
# E-initial  =   2.524930 E-final=   2.149430
# E-threshold= 0.00000E+00
# # energies =    67
#    E           xs
 1.00000E-11 0.00000E+00
 2.53000E-08 0.00000E+00
 2.00000E-07 0.00000E+00
 1.00000E-06 1.44006E+02
 1.00000E-03 4.65369E-01
 2.00000E-03 2.72197E-01
 5.00000E-03 1.48869E-01
 1.00000E-02 9.81439E-02
 2.00000E-02 6.03076E-02
 5.00000E-02 3.03559E-02
 1.00000E-01 1.92634E-02
 2.00000E-01 1.31482E-02
 3.00000E-01 1.11528E-02
 4.00000E-01 1.03966E-02
 5.00000E-01 1.02197E-02
 7.50000E-01 1.10299E-02
 1.00000E+00 1.29287E-02
 1.20000E+00 1.50977E-02
 1.40000E+00 1.78796E-02
 1.60000E+00 2.11973E-02
 1.80000E+00 2.52387E-02
 2.00000E+00 3.01225E-02
 2.20000E+00 3.58865E-02
 2.40000E+00 4.28271E-02
 2.60000E+00 5.11872E-02
 2.80000E+00 4.48294E-02
 3.00000E+00 4.49813E-02
 3.20000E+00 4.73748E-02
 3.40000E+00 4.95892E-02
 3.60000E+00 5.19732E-02
 3.80000E+00 5.29583E-02
 4.00000E+00 5.37642E-02
 4.20000E+00 4.82520E-02
 4.40000E+00 3.97463E-02
 4.60000E+00 3.34496E-02
 4.80000E+00 2.85283E-02
 5.00000E+00 2.37154E-02
 5.50000E+00 1.68433E-02
 6.00000E+00 1.20322E-02
 6.50000E+00 9.58711E-03
 7.00000E+00 7.57809E-03
 7.50000E+00 6.67281E-03
 8.00000E+00 6.13886E-03
 8.50000E+00 5.57143E-03
 9.00000E+00 5.70701E-03
 9.50000E+00 6.06538E-03
 1.00000E+01 6.63538E-03
 1.10000E+01 8.37198E-03
 1.20000E+01 1.04903E-02
 1.30000E+01 1.06617E-02
 1.40000E+01 9.30483E-03
 1.50000E+01 8.51810E-03
 1.60000E+01 7.54377E-03
 1.70000E+01 7.23183E-03
 1.80000E+01 5.65204E-03
 1.90000E+01 5.31477E-03
 2.00000E+01 4.84970E-03
 2.10000E+01 4.27784E-03
 2.20000E+01 3.81684E-03
 2.30000E+01 3.46786E-03
 2.40000E+01 2.97676E-03
 2.50000E+01 2.65539E-03
 2.60000E+01 2.42570E-03
 2.70000E+01 2.18913E-03
 2.80000E+01 1.70518E-03
 2.90000E+01 1.57135E-03
 3.00000E+01 1.47265E-03
