# n + 209Bi: triton   DDX spectrum
# E-incident =   63.000
# Angle      =  20.000
# # energies =   227
#  E-out    Total       Direct    Pre-equil.  Mult. preeq  Compound
   0.400 0.00000E+00 0.00000E+00 0.00000E+00 0.00000E+00 0.00000E+00
   0.500 0.00000E+00 0.00000E+00 0.00000E+00 0.00000E+00 0.00000E+00
   0.600 0.00000E+00 0.00000E+00 0.00000E+00 0.00000E+00 0.00000E+00
   0.700 0.00000E+00 0.00000E+00 0.00000E+00 0.00000E+00 0.00000E+00
   0.800 0.00000E+00 0.00000E+00 0.00000E+00 0.00000E+00 0.00000E+00
   0.900 1.40130E-44 0.00000E+00 1.40130E-44 0.00000E+00 0.00000E+00
   1.000 7.05829E-12 0.00000E+00 2.34760E-41 0.00000E+00 7.05829E-12
   1.100 1.29696E-11 0.00000E+00 2.09535E-38 0.00000E+00 1.29696E-11
   1.200 7.02137E-11 0.00000E+00 1.74692E-35 0.00000E+00 7.02137E-11
   1.300 2.32399E-10 0.00000E+00 2.21959E-33 0.00000E+00 2.32399E-10
   1.400 6.04989E-10 0.00000E+00 1.63563E-31 0.00000E+00 6.04989E-10
   1.500 6.28316E-10 0.00000E+00 7.67293E-30 0.00000E+00 6.28316E-10
   1.600 6.37505E-10 0.00000E+00 2.46294E-28 0.00000E+00 6.37505E-10
   1.700 6.61789E-10 0.00000E+00 5.72571E-27 0.00000E+00 6.61789E-10
   1.800 6.70733E-10 0.00000E+00 1.00975E-25 0.00000E+00 6.70733E-10
   1.900 6.97322E-10 0.00000E+00 1.40177E-24 0.00000E+00 6.97322E-10
   2.000 9.21810E-10 0.00000E+00 1.57913E-23 0.00000E+00 9.21810E-10
   2.200 9.28046E-09 0.00000E+00 1.18231E-21 0.00000E+00 9.28046E-09
   2.400 5.23731E-08 0.00000E+00 4.96747E-20 0.00000E+00 5.23731E-08
   2.600 1.34793E-07 0.00000E+00 1.31505E-18 0.00000E+00 1.34793E-07
   2.800 1.91370E-07 0.00000E+00 2.38947E-17 0.00000E+00 1.91370E-07
   3.000 2.47085E-07 0.00000E+00 3.18259E-16 0.00000E+00 2.47085E-07
   3.200 5.24719E-06 0.00000E+00 3.26821E-15 0.00000E+00 5.24719E-06
   3.400 1.31937E-05 0.00000E+00 2.69383E-14 0.00000E+00 1.31937E-05
   3.600 1.53342E-05 0.00000E+00 1.83972E-13 0.00000E+00 1.53342E-05
   3.800 1.58550E-05 0.00000E+00 1.06838E-12 0.00000E+00 1.58550E-05
   4.000 1.65080E-05 0.00000E+00 5.38870E-12 0.00000E+00 1.65080E-05
   4.500 1.79385E-05 0.00000E+00 1.84822E-10 0.00000E+00 1.79383E-05
   5.000 2.23553E-05 0.00000E+00 3.55185E-09 0.00000E+00 2.23517E-05
   5.500 3.71085E-05 0.00000E+00 4.36127E-08 0.00000E+00 3.70649E-05
   6.000 4.76835E-05 0.00000E+00 3.74109E-07 0.00000E+00 4.73093E-05
   6.500 6.11127E-05 0.00000E+00 2.39227E-06 0.00000E+00 5.87204E-05
   7.000 2.34838E-04 0.00000E+00 1.19711E-05 0.00000E+00 2.22867E-04
   7.500 3.73461E-04 0.00000E+00 4.87594E-05 0.00000E+00 3.24702E-04
   8.000 5.59622E-04 0.00000E+00 1.66878E-04 0.00000E+00 3.92744E-04
   8.500 9.51742E-04 0.00000E+00 4.91805E-04 0.00000E+00 4.59938E-04
   9.000 1.78825E-03 0.00000E+00 1.26826E-03 0.00000E+00 5.19995E-04
   9.500 3.45782E-03 0.00000E+00 2.87953E-03 0.00000E+00 5.78293E-04
  10.000 6.40202E-03 0.00000E+00 5.74607E-03 0.00000E+00 6.55949E-04
  10.500 1.08216E-02 0.00000E+00 1.00682E-02 0.00000E+00 7.53377E-04
  11.000 1.64031E-02 0.00000E+00 1.56568E-02 0.00000E+00 7.46303E-04
  11.500 2.27806E-02 0.00000E+00 2.20869E-02 0.00000E+00 6.93772E-04
  12.000 2.95906E-02 0.00000E+00 2.89616E-02 0.00000E+00 6.29095E-04
  12.500 3.65815E-02 0.00000E+00 3.60185E-02 0.00000E+00 5.63019E-04
  13.000 4.36023E-02 0.00000E+00 4.31049E-02 0.00000E+00 4.97438E-04
  13.500 5.05788E-02 0.00000E+00 5.01547E-02 0.00000E+00 4.24071E-04
  14.000 5.75113E-02 0.00000E+00 5.71544E-02 0.00000E+00 3.56925E-04
  14.500 6.43659E-02 0.00000E+00 6.40850E-02 0.00000E+00 2.80974E-04
  15.000 7.11567E-02 0.00000E+00 7.09358E-02 0.00000E+00 2.20822E-04
  15.500 7.78691E-02 0.00000E+00 7.77160E-02 0.00000E+00 1.53128E-04
  16.000 8.45184E-02 0.00000E+00 8.44241E-02 0.00000E+00 9.42977E-05
  16.500 9.11113E-02 0.00000E+00 9.10364E-02 0.00000E+00 7.49769E-05
  17.000 9.75919E-02 0.00000E+00 9.75334E-02 0.00000E+00 5.85736E-05
  17.500 1.03958E-01 0.00000E+00 1.03920E-01 0.00000E+00 3.82422E-05
  18.000 1.10229E-01 0.00000E+00 1.10205E-01 0.00000E+00 2.36523E-05
  18.500 1.16402E-01 0.00000E+00 1.16388E-01 0.00000E+00 1.45125E-05
  19.000 1.22466E-01 0.00000E+00 1.22455E-01 0.00000E+00 1.01290E-05
  19.500 1.28423E-01 0.00000E+00 1.28415E-01 0.00000E+00 8.14318E-06
  20.000 1.34297E-01 0.00000E+00 1.34291E-01 0.00000E+00 5.84902E-06
  21.000 1.45890E-01 0.00000E+00 1.45888E-01 0.00000E+00 1.71831E-06
  22.000 1.57347E-01 0.00000E+00 1.57346E-01 0.00000E+00 1.01542E-06
  23.000 1.68748E-01 0.00000E+00 1.68748E-01 0.00000E+00 5.25563E-07
  24.000 1.80215E-01 0.00000E+00 1.80215E-01 0.00000E+00 1.46819E-07
  25.000 1.91813E-01 0.00000E+00 1.91813E-01 0.00000E+00 9.34099E-08
  26.000 1.98653E-01 0.00000E+00 1.98653E-01 0.00000E+00 4.20713E-08
  27.000 2.03636E-01 0.00000E+00 2.03636E-01 0.00000E+00 1.40445E-08
  28.000 2.07902E-01 0.00000E+00 2.07902E-01 0.00000E+00 7.56684E-09
  29.000 2.11467E-01 0.00000E+00 2.11467E-01 0.00000E+00 2.50310E-09
  30.000 2.14360E-01 0.00000E+00 2.14360E-01 0.00000E+00 1.16683E-09
  31.000 2.16605E-01 0.00000E+00 2.16605E-01 0.00000E+00 5.14052E-10
  32.000 2.18206E-01 0.00000E+00 2.18206E-01 0.00000E+00 1.68553E-10
  33.000 2.19170E-01 0.00000E+00 2.19170E-01 0.00000E+00 0.00000E+00
  34.000 2.19518E-01 0.00000E+00 2.19518E-01 0.00000E+00 0.00000E+00
  35.000 2.19271E-01 0.00000E+00 2.19271E-01 0.00000E+00 0.00000E+00
  36.000 2.18437E-01 0.00000E+00 2.18437E-01 0.00000E+00 0.00000E+00
  37.000 2.17022E-01 0.00000E+00 2.17022E-01 0.00000E+00 0.00000E+00
  38.000 2.15032E-01 0.00000E+00 2.15032E-01 0.00000E+00 0.00000E+00
  39.000 2.12473E-01 0.00000E+00 2.12473E-01 0.00000E+00 0.00000E+00
  40.000 2.09341E-01 0.00000E+00 2.09341E-01 0.00000E+00 0.00000E+00
  42.000 2.01333E-01 0.00000E+00 2.01333E-01 0.00000E+00 0.00000E+00
  44.000 1.90942E-01 0.00000E+00 1.90942E-01 0.00000E+00 0.00000E+00
  46.000 1.78031E-01 0.00000E+00 1.78031E-01 0.00000E+00 0.00000E+00
  48.000 1.62384E-01 0.00000E+00 1.62384E-01 0.00000E+00 0.00000E+00
  50.000 1.43692E-01 0.00000E+00 1.43692E-01 0.00000E+00 0.00000E+00
  52.000 1.21528E-01 0.00000E+00 1.21528E-01 0.00000E+00 0.00000E+00
  54.000 9.53339E-02 0.00000E+00 9.53339E-02 0.00000E+00 0.00000E+00
  56.000 6.43902E-02 0.00000E+00 6.43902E-02 0.00000E+00 0.00000E+00
  56.100 6.15947E-02 1.61013E-04 6.14337E-02 0.00000E+00 0.00000E+00
  56.200 5.87937E-02 3.16671E-04 5.84771E-02 0.00000E+00 0.00000E+00
  56.300 5.61141E-02 5.93518E-04 5.55205E-02 0.00000E+00 0.00000E+00
  56.400 5.36244E-02 1.06048E-03 5.25639E-02 0.00000E+00 0.00000E+00
  56.500 5.14144E-02 1.80696E-03 4.96074E-02 0.00000E+00 0.00000E+00
  56.600 4.95881E-02 2.93718E-03 4.66509E-02 0.00000E+00 0.00000E+00
  56.700 4.82507E-02 4.55641E-03 4.36943E-02 0.00000E+00 0.00000E+00
  56.800 4.74860E-02 6.74822E-03 4.07377E-02 0.00000E+00 0.00000E+00
  56.900 4.73277E-02 9.54655E-03 3.77811E-02 0.00000E+00 0.00000E+00
  57.000 4.77318E-02 1.29072E-02 3.48246E-02 0.00000E+00 0.00000E+00
  57.100 4.85586E-02 1.66905E-02 3.18681E-02 0.00000E+00 0.00000E+00
  57.200 4.95740E-02 2.06626E-02 2.89115E-02 0.00000E+00 0.00000E+00
  57.300 5.04765E-02 2.45216E-02 2.59549E-02 0.00000E+00 0.00000E+00
  57.400 5.09472E-02 2.79489E-02 2.29983E-02 0.00000E+00 0.00000E+00
  57.500 5.07122E-02 3.06704E-02 2.00418E-02 0.00000E+00 0.00000E+00
  57.600 4.95999E-02 3.25146E-02 1.70853E-02 0.00000E+00 0.00000E+00
  57.700 4.75735E-02 3.34448E-02 1.41287E-02 0.00000E+00 0.00000E+00
  57.800 4.47292E-02 3.35570E-02 1.11721E-02 0.00000E+00 0.00000E+00
  57.900 4.12589E-02 3.30434E-02 8.21551E-03 0.00000E+00 0.00000E+00
  58.000 3.73941E-02 3.21351E-02 5.25899E-03 0.00000E+00 0.00000E+00
  58.100 3.60426E-02 3.10466E-02 4.99605E-03 0.00000E+00 0.00000E+00
  58.200 3.46728E-02 2.99397E-02 4.73309E-03 0.00000E+00 0.00000E+00
  58.300 3.33856E-02 2.89155E-02 4.47015E-03 0.00000E+00 0.00000E+00
  58.400 3.22361E-02 2.80289E-02 4.20719E-03 0.00000E+00 0.00000E+00
  58.500 3.12560E-02 2.73118E-02 3.94425E-03 0.00000E+00 0.00000E+00
  58.600 3.04676E-02 2.67863E-02 3.68130E-03 0.00000E+00 0.00000E+00
  58.700 2.98818E-02 2.64635E-02 3.41834E-03 0.00000E+00 0.00000E+00
  58.800 2.94825E-02 2.63271E-02 3.15540E-03 0.00000E+00 0.00000E+00
  58.900 2.92090E-02 2.63166E-02 2.89244E-03 0.00000E+00 0.00000E+00
  59.000 2.89502E-02 2.63207E-02 2.62950E-03 0.00000E+00 0.00000E+00
  59.100 2.85576E-02 2.61911E-02 2.36655E-03 0.00000E+00 0.00000E+00
  59.200 2.78765E-02 2.57729E-02 2.10360E-03 0.00000E+00 0.00000E+00
  59.300 2.67827E-02 2.49421E-02 1.84065E-03 0.00000E+00 0.00000E+00
  59.400 2.52146E-02 2.36369E-02 1.57769E-03 0.00000E+00 0.00000E+00
  59.500 2.31870E-02 2.18723E-02 1.31475E-03 0.00000E+00 0.00000E+00
  59.600 2.07856E-02 1.97338E-02 1.05180E-03 0.00000E+00 0.00000E+00
  59.700 1.81440E-02 1.73552E-02 7.88847E-04 0.00000E+00 0.00000E+00
  59.800 1.54139E-02 1.48880E-02 5.25902E-04 0.00000E+00 0.00000E+00
  59.900 1.27353E-02 1.24723E-02 2.62945E-04 0.00000E+00 0.00000E+00
  60.000 1.02181E-02 1.02181E-02 0.00000E+00 0.00000E+00 0.00000E+00
  60.100 8.19625E-03 8.19625E-03 0.00000E+00 0.00000E+00 0.00000E+00
  60.200 6.44078E-03 6.44078E-03 0.00000E+00 0.00000E+00 0.00000E+00
  60.300 4.95758E-03 4.95758E-03 0.00000E+00 0.00000E+00 0.00000E+00
  60.400 3.73370E-03 3.73370E-03 0.00000E+00 0.00000E+00 0.00000E+00
  60.500 2.74635E-03 2.74635E-03 0.00000E+00 0.00000E+00 0.00000E+00
  60.600 1.96819E-03 1.96819E-03 0.00000E+00 0.00000E+00 0.00000E+00
  60.700 1.37055E-03 1.37055E-03 0.00000E+00 0.00000E+00 0.00000E+00
  60.800 9.24821E-04 9.24821E-04 0.00000E+00 0.00000E+00 0.00000E+00
  60.900 6.03157E-04 6.03157E-04 0.00000E+00 0.00000E+00 0.00000E+00
  61.000 3.79344E-04 3.79344E-04 0.00000E+00 0.00000E+00 0.00000E+00
  61.100 2.29621E-04 2.29621E-04 0.00000E+00 0.00000E+00 0.00000E+00
  61.200 1.33555E-04 1.33555E-04 0.00000E+00 0.00000E+00 0.00000E+00
  61.300 7.45462E-05 7.45462E-05 0.00000E+00 0.00000E+00 0.00000E+00
  61.400 3.98884E-05 3.98884E-05 0.00000E+00 0.00000E+00 0.00000E+00
  61.500 2.04453E-05 2.04453E-05 0.00000E+00 0.00000E+00 0.00000E+00
  61.600 1.00320E-05 1.00320E-05 0.00000E+00 0.00000E+00 0.00000E+00
  61.700 4.70983E-06 4.70983E-06 0.00000E+00 0.00000E+00 0.00000E+00
  61.800 2.11502E-06 2.11502E-06 0.00000E+00 0.00000E+00 0.00000E+00
  61.900 9.08174E-07 9.08174E-07 0.00000E+00 0.00000E+00 0.00000E+00
  62.000 3.72825E-07 3.72825E-07 0.00000E+00 0.00000E+00 0.00000E+00
  62.100 1.46298E-07 1.46298E-07 0.00000E+00 0.00000E+00 0.00000E+00
  62.200 5.48662E-08 5.48662E-08 0.00000E+00 0.00000E+00 0.00000E+00
  62.300 1.96650E-08 1.96650E-08 0.00000E+00 0.00000E+00 0.00000E+00
  62.400 6.73507E-09 6.73507E-09 0.00000E+00 0.00000E+00 0.00000E+00
  62.500 2.20426E-09 2.20426E-09 0.00000E+00 0.00000E+00 0.00000E+00
  62.600 6.89326E-10 6.89326E-10 0.00000E+00 0.00000E+00 0.00000E+00
  62.700 2.05965E-10 2.05965E-10 0.00000E+00 0.00000E+00 0.00000E+00
  62.800 5.88030E-11 5.88030E-11 0.00000E+00 0.00000E+00 0.00000E+00
  62.900 1.60396E-11 1.60396E-11 0.00000E+00 0.00000E+00 0.00000E+00
  63.000 4.18038E-12 4.18038E-12 0.00000E+00 0.00000E+00 0.00000E+00
  63.100 1.04097E-12 1.04097E-12 0.00000E+00 0.00000E+00 0.00000E+00
  63.200 2.47650E-13 2.47650E-13 0.00000E+00 0.00000E+00 0.00000E+00
  63.300 5.62932E-14 5.62932E-14 0.00000E+00 0.00000E+00 0.00000E+00
  63.400 1.22249E-14 1.22249E-14 0.00000E+00 0.00000E+00 0.00000E+00
  63.500 2.53660E-15 2.53660E-15 0.00000E+00 0.00000E+00 0.00000E+00
  63.600 5.02865E-16 5.02865E-16 0.00000E+00 0.00000E+00 0.00000E+00
  63.700 9.52394E-17 9.52394E-17 0.00000E+00 0.00000E+00 0.00000E+00
  63.800 1.72346E-17 1.72346E-17 0.00000E+00 0.00000E+00 0.00000E+00
  63.900 2.97953E-18 2.97953E-18 0.00000E+00 0.00000E+00 0.00000E+00
  64.000 4.92169E-19 4.92169E-19 0.00000E+00 0.00000E+00 0.00000E+00
  64.100 7.76734E-20 7.76734E-20 0.00000E+00 0.00000E+00 0.00000E+00
  64.200 1.17117E-20 1.17117E-20 0.00000E+00 0.00000E+00 0.00000E+00
  64.300 1.68692E-21 1.68692E-21 0.00000E+00 0.00000E+00 0.00000E+00
  64.400 2.32180E-22 2.32180E-22 0.00000E+00 0.00000E+00 0.00000E+00
  64.500 3.05313E-23 3.05313E-23 0.00000E+00 0.00000E+00 0.00000E+00
  64.600 3.83582E-24 3.83582E-24 0.00000E+00 0.00000E+00 0.00000E+00
  64.700 4.60425E-25 4.60425E-25 0.00000E+00 0.00000E+00 0.00000E+00
  64.800 5.27934E-26 5.27934E-26 0.00000E+00 0.00000E+00 0.00000E+00
  64.900 5.78445E-27 5.78445E-27 0.00000E+00 0.00000E+00 0.00000E+00
  65.000 6.05528E-28 6.05528E-28 0.00000E+00 0.00000E+00 0.00000E+00
  65.100 6.05620E-29 6.05620E-29 0.00000E+00 0.00000E+00 0.00000E+00
  65.200 5.78698E-30 5.78698E-30 0.00000E+00 0.00000E+00 0.00000E+00
  65.300 5.28222E-31 5.28222E-31 0.00000E+00 0.00000E+00 0.00000E+00
  65.400 4.60739E-32 4.60739E-32 0.00000E+00 0.00000E+00 0.00000E+00
  65.500 3.83951E-33 3.83951E-33 0.00000E+00 0.00000E+00 0.00000E+00
  65.600 3.05701E-34 3.05701E-34 0.00000E+00 0.00000E+00 0.00000E+00
  65.700 2.32541E-35 2.32541E-35 0.00000E+00 0.00000E+00 0.00000E+00
  65.800 1.68971E-36 1.68971E-36 0.00000E+00 0.00000E+00 0.00000E+00
  65.900 1.17326E-37 1.17326E-37 0.00000E+00 0.00000E+00 0.00000E+00
  66.000 7.78351E-39 7.78351E-39 0.00000E+00 0.00000E+00 0.00000E+00
  66.100 4.93334E-40 4.93334E-40 0.00000E+00 0.00000E+00 0.00000E+00
  66.200 2.98743E-41 2.98743E-41 0.00000E+00 0.00000E+00 0.00000E+00
  66.300 1.72780E-42 1.72780E-42 0.00000E+00 0.00000E+00 0.00000E+00
  66.400 9.52883E-44 9.52883E-44 0.00000E+00 0.00000E+00 0.00000E+00
  66.500 5.60519E-45 5.60519E-45 0.00000E+00 0.00000E+00 0.00000E+00
  66.600 0.00000E+00 0.00000E+00 0.00000E+00 0.00000E+00 0.00000E+00
  66.700 0.00000E+00 0.00000E+00 0.00000E+00 0.00000E+00 0.00000E+00
  66.800 0.00000E+00 0.00000E+00 0.00000E+00 0.00000E+00 0.00000E+00
  66.900 0.00000E+00 0.00000E+00 0.00000E+00 0.00000E+00 0.00000E+00
  67.000 0.00000E+00 0.00000E+00 0.00000E+00 0.00000E+00 0.00000E+00
  67.100 0.00000E+00 0.00000E+00 0.00000E+00 0.00000E+00 0.00000E+00
  67.200 0.00000E+00 0.00000E+00 0.00000E+00 0.00000E+00 0.00000E+00
  67.300 0.00000E+00 0.00000E+00 0.00000E+00 0.00000E+00 0.00000E+00
  67.400 0.00000E+00 0.00000E+00 0.00000E+00 0.00000E+00 0.00000E+00
  67.500 0.00000E+00 0.00000E+00 0.00000E+00 0.00000E+00 0.00000E+00
  67.600 0.00000E+00 0.00000E+00 0.00000E+00 0.00000E+00 0.00000E+00
  67.700 0.00000E+00 0.00000E+00 0.00000E+00 0.00000E+00 0.00000E+00
  67.800 0.00000E+00 0.00000E+00 0.00000E+00 0.00000E+00 0.00000E+00
  67.900 0.00000E+00 0.00000E+00 0.00000E+00 0.00000E+00 0.00000E+00
  68.000 0.00000E+00 0.00000E+00 0.00000E+00 0.00000E+00 0.00000E+00
  68.100 0.00000E+00 0.00000E+00 0.00000E+00 0.00000E+00 0.00000E+00
  68.200 0.00000E+00 0.00000E+00 0.00000E+00 0.00000E+00 0.00000E+00
  68.300 0.00000E+00 0.00000E+00 0.00000E+00 0.00000E+00 0.00000E+00
  68.400 0.00000E+00 0.00000E+00 0.00000E+00 0.00000E+00 0.00000E+00
  68.500 0.00000E+00 0.00000E+00 0.00000E+00 0.00000E+00 0.00000E+00
  68.600 0.00000E+00 0.00000E+00 0.00000E+00 0.00000E+00 0.00000E+00
  68.700 0.00000E+00 0.00000E+00 0.00000E+00 0.00000E+00 0.00000E+00
  68.800 0.00000E+00 0.00000E+00 0.00000E+00 0.00000E+00 0.00000E+00
  68.900 0.00000E+00 0.00000E+00 0.00000E+00 0.00000E+00 0.00000E+00
  69.000 0.00000E+00 0.00000E+00 0.00000E+00 0.00000E+00 0.00000E+00
  69.100 0.00000E+00 0.00000E+00 0.00000E+00 0.00000E+00 0.00000E+00
  69.200 0.00000E+00 0.00000E+00 0.00000E+00 0.00000E+00 0.00000E+00
  69.300 0.00000E+00 0.00000E+00 0.00000E+00 0.00000E+00 0.00000E+00
  69.400 0.00000E+00 0.00000E+00 0.00000E+00 0.00000E+00 0.00000E+00
  69.500 0.00000E+00 0.00000E+00 0.00000E+00 0.00000E+00 0.00000E+00
  69.600 0.00000E+00 0.00000E+00 0.00000E+00 0.00000E+00 0.00000E+00
  69.700 0.00000E+00 0.00000E+00 0.00000E+00 0.00000E+00 0.00000E+00
  69.800 0.00000E+00 0.00000E+00 0.00000E+00 0.00000E+00 0.00000E+00
  69.900 0.00000E+00 0.00000E+00 0.00000E+00 0.00000E+00 0.00000E+00
  70.000 0.00000E+00 0.00000E+00 0.00000E+00 0.00000E+00 0.00000E+00
