# n +  28Si   : (n,a)             Total
# Q-value    =-2.73244E+00
# E-threshold= 2.83095E+00
# # energies = 50
#    E         xs       gamma xs  xs/res.prod.xs
 1.000E-01 0.00000E+00 0.00000E+00 0.00000E+00
 2.000E-01 0.00000E+00 0.00000E+00 0.00000E+00
 4.000E-01 0.00000E+00 0.00000E+00 0.00000E+00
 6.000E-01 0.00000E+00 0.00000E+00 0.00000E+00
 8.000E-01 0.00000E+00 0.00000E+00 0.00000E+00
 1.000E+00 0.00000E+00 0.00000E+00 0.00000E+00
 1.200E+00 0.00000E+00 0.00000E+00 0.00000E+00
 1.400E+00 0.00000E+00 0.00000E+00 0.00000E+00
 1.600E+00 0.00000E+00 0.00000E+00 0.00000E+00
 1.800E+00 0.00000E+00 0.00000E+00 0.00000E+00
 2.000E+00 0.00000E+00 0.00000E+00 0.00000E+00
 2.200E+00 0.00000E+00 0.00000E+00 0.00000E+00
 2.400E+00 0.00000E+00 0.00000E+00 0.00000E+00
 2.600E+00 0.00000E+00 0.00000E+00 0.00000E+00
 2.800E+00 0.00000E+00 0.00000E+00 0.00000E+00
 3.000E+00 0.00000E+00 0.00000E+00 0.00000E+00
 3.200E+00 0.00000E+00 0.00000E+00 0.00000E+00
 3.400E+00 0.00000E+00 0.00000E+00 0.00000E+00
 3.600E+00 0.00000E+00 0.00000E+00 0.00000E+00
 3.800E+00 0.00000E+00 0.00000E+00 0.00000E+00
 4.000E+00 0.00000E+00 0.00000E+00 0.00000E+00
 4.200E+00 1.46489E-04 0.00000E+00 0.00000E+00
 4.400E+00 1.55432E-03 0.00000E+00 1.00000E+00
 4.600E+00 1.04081E-02 0.00000E+00 1.00000E+00
 4.800E+00 4.93205E-02 5.74923E-05 1.00000E+00
 5.000E+00 1.85499E-01 6.08102E-04 1.00000E+00
 5.200E+00 5.57657E-01 3.96986E-03 1.00000E+00
 5.400E+00 1.42379E+00 1.87734E-02 1.00000E+00
 5.600E+00 3.23031E+00 7.47960E-02 1.00000E+00
 5.800E+00 6.58543E+00 2.37188E-01 1.00000E+00
 6.000E+00 1.22096E+01 6.47062E-01 1.00000E+00
 6.200E+00 2.07991E+01 1.54883E+00 1.00000E+00
 6.400E+00 3.28411E+01 3.31238E+00 1.00000E+00
 6.600E+00 4.70351E+01 6.33943E+00 1.00000E+00
 6.800E+00 6.39149E+01 1.11214E+01 1.00000E+00
 7.000E+00 8.29426E+01 1.78909E+01 1.00000E+00
 7.200E+00 1.00758E+02 2.66732E+01 1.00000E+00
 7.400E+00 1.16869E+02 3.71185E+01 9.99999E-01
 7.600E+00 1.33651E+02 4.96332E+01 9.99999E-01
 7.800E+00 1.45154E+02 6.14790E+01 9.99999E-01
 8.000E+00 1.57998E+02 7.51843E+01 9.99998E-01
 8.500E+00 1.83308E+02 1.12790E+02 9.99996E-01
 9.000E+00 2.03674E+02 1.59613E+02 9.99993E-01
 9.500E+00 2.14746E+02 2.03384E+02 9.99988E-01
 1.000E+01 2.21606E+02 2.45605E+02 9.99980E-01
 1.200E+01 2.23413E+02 3.49129E+02 9.99919E-01
 1.400E+01 2.18967E+02 3.87332E+02 9.99809E-01
 1.600E+01 1.82907E+02 3.47458E+02 9.99616E-01
 1.800E+01 1.26919E+02 2.48975E+02 9.99228E-01
 2.000E+01 8.31457E+01 1.66726E+02 9.98518E-01
