# n +  28Si   : (n,a)             Total
# Q-value    =-2.73244E+00
# E-threshold= 2.83095E+00
# # energies = 50
#    E         xs       gamma xs  xs/res.prod.xs
 1.000E-01 0.00000E+00 0.00000E+00 0.00000E+00
 2.000E-01 0.00000E+00 0.00000E+00 0.00000E+00
 4.000E-01 0.00000E+00 0.00000E+00 0.00000E+00
 6.000E-01 0.00000E+00 0.00000E+00 0.00000E+00
 8.000E-01 0.00000E+00 0.00000E+00 0.00000E+00
 1.000E+00 0.00000E+00 0.00000E+00 0.00000E+00
 1.200E+00 0.00000E+00 0.00000E+00 0.00000E+00
 1.400E+00 0.00000E+00 0.00000E+00 0.00000E+00
 1.600E+00 0.00000E+00 0.00000E+00 0.00000E+00
 1.800E+00 0.00000E+00 0.00000E+00 0.00000E+00
 2.000E+00 0.00000E+00 0.00000E+00 0.00000E+00
 2.200E+00 0.00000E+00 0.00000E+00 0.00000E+00
 2.400E+00 0.00000E+00 0.00000E+00 0.00000E+00
 2.600E+00 0.00000E+00 0.00000E+00 0.00000E+00
 2.800E+00 0.00000E+00 0.00000E+00 0.00000E+00
 3.000E+00 0.00000E+00 0.00000E+00 0.00000E+00
 3.200E+00 0.00000E+00 0.00000E+00 0.00000E+00
 3.400E+00 0.00000E+00 0.00000E+00 0.00000E+00
 3.600E+00 0.00000E+00 0.00000E+00 0.00000E+00
 3.800E+00 0.00000E+00 0.00000E+00 0.00000E+00
 4.000E+00 0.00000E+00 0.00000E+00 0.00000E+00
 4.200E+00 1.47467E-04 0.00000E+00 0.00000E+00
 4.400E+00 1.56492E-03 0.00000E+00 1.00000E+00
 4.600E+00 1.04888E-02 0.00000E+00 1.00000E+00
 4.800E+00 4.97611E-02 5.78135E-05 1.00000E+00
 5.000E+00 1.85966E-01 6.10675E-04 1.00000E+00
 5.200E+00 5.58102E-01 3.99473E-03 1.00000E+00
 5.400E+00 1.42228E+00 1.88338E-02 1.00000E+00
 5.600E+00 3.22444E+00 7.48999E-02 1.00000E+00
 5.800E+00 6.57157E+00 2.37401E-01 1.00000E+00
 6.000E+00 1.21807E+01 6.47673E-01 1.00000E+00
 6.200E+00 2.07400E+01 1.55039E+00 1.00000E+00
 6.400E+00 3.27221E+01 3.31489E+00 1.00000E+00
 6.600E+00 4.68749E+01 6.34170E+00 1.00000E+00
 6.800E+00 6.34634E+01 1.10983E+01 1.00000E+00
 7.000E+00 8.21711E+01 1.78409E+01 1.00000E+00
 7.200E+00 9.95951E+01 2.65133E+01 1.00000E+00
 7.400E+00 1.14536E+02 3.66230E+01 1.00000E+00
 7.600E+00 1.30445E+02 4.87893E+01 1.00000E+00
 7.800E+00 1.41715E+02 6.04745E+01 9.99999E-01
 8.000E+00 1.53891E+02 7.37347E+01 9.99999E-01
 8.500E+00 1.78539E+02 1.10403E+02 9.99998E-01
 9.000E+00 1.93295E+02 1.47928E+02 9.99996E-01
 9.500E+00 2.00355E+02 1.84016E+02 9.99993E-01
 1.000E+01 2.02857E+02 2.17031E+02 9.99989E-01
 1.200E+01 1.90935E+02 2.87170E+02 9.99952E-01
 1.400E+01 1.70763E+02 2.92432E+02 9.99880E-01
 1.600E+01 1.26568E+02 2.33785E+02 9.99737E-01
 1.800E+01 7.21714E+01 1.38675E+02 9.99385E-01
 2.000E+01 4.05336E+01 7.96185E+01 9.98741E-01
