# n +  28Si   : (n,a)             Total
# Q-value    =-2.65366E+00
# E-threshold= 2.74933E+00
# # energies = 50
#    E         xs       gamma xs  xs/res.prod.xs
 1.000E-01 0.00000E+00 0.00000E+00 0.00000E+00
 2.000E-01 0.00000E+00 0.00000E+00 0.00000E+00
 4.000E-01 0.00000E+00 0.00000E+00 0.00000E+00
 6.000E-01 0.00000E+00 0.00000E+00 0.00000E+00
 8.000E-01 0.00000E+00 0.00000E+00 0.00000E+00
 1.000E+00 0.00000E+00 0.00000E+00 0.00000E+00
 1.200E+00 0.00000E+00 0.00000E+00 0.00000E+00
 1.400E+00 0.00000E+00 0.00000E+00 0.00000E+00
 1.600E+00 0.00000E+00 0.00000E+00 0.00000E+00
 1.800E+00 0.00000E+00 0.00000E+00 0.00000E+00
 2.000E+00 0.00000E+00 0.00000E+00 0.00000E+00
 2.200E+00 0.00000E+00 0.00000E+00 0.00000E+00
 2.400E+00 0.00000E+00 0.00000E+00 0.00000E+00
 2.600E+00 0.00000E+00 0.00000E+00 0.00000E+00
 2.800E+00 0.00000E+00 0.00000E+00 0.00000E+00
 3.000E+00 0.00000E+00 0.00000E+00 0.00000E+00
 3.200E+00 0.00000E+00 0.00000E+00 0.00000E+00
 3.400E+00 0.00000E+00 0.00000E+00 0.00000E+00
 3.600E+00 0.00000E+00 0.00000E+00 0.00000E+00
 3.800E+00 0.00000E+00 0.00000E+00 0.00000E+00
 4.000E+00 1.26916E-05 0.00000E+00 0.00000E+00
 4.200E+00 2.28914E-04 0.00000E+00 0.00000E+00
 4.400E+00 2.09047E-03 0.00000E+00 1.00000E+00
 4.600E+00 1.23192E-02 4.93584E-06 1.00000E+00
 4.800E+00 5.25150E-02 9.19694E-05 1.00000E+00
 5.000E+00 1.73680E-01 8.24773E-04 1.00000E+00
 5.200E+00 4.90053E-01 4.73663E-03 1.00000E+00
 5.400E+00 1.19426E+00 2.00331E-02 1.00000E+00
 5.600E+00 2.59726E+00 7.13936E-02 1.00000E+00
 5.800E+00 5.10398E+00 2.12968E-01 1.00000E+00
 6.000E+00 9.17118E+00 5.52760E-01 1.00000E+00
 6.200E+00 1.52162E+01 1.27101E+00 1.00000E+00
 6.400E+00 2.35098E+01 2.62987E+00 1.00000E+00
 6.600E+00 3.30588E+01 4.89243E+00 1.00000E+00
 6.800E+00 4.42807E+01 8.37984E+00 1.00000E+00
 7.000E+00 5.67124E+01 1.32119E+01 1.00000E+00
 7.200E+00 6.82867E+01 1.93535E+01 1.00000E+00
 7.400E+00 7.86766E+01 2.65063E+01 1.00000E+00
 7.600E+00 9.57844E+01 3.47513E+01 1.00000E+00
 7.800E+00 1.11250E+02 4.22006E+01 1.00000E+00
 8.000E+00 1.26394E+02 5.08250E+01 1.00000E+00
 8.500E+00 1.53183E+02 8.22899E+01 1.00000E+00
 9.000E+00 1.70767E+02 1.20107E+02 1.00000E+00
 9.500E+00 1.83208E+02 1.56578E+02 9.99999E-01
 1.000E+01 1.90922E+02 1.93477E+02 9.99999E-01
 1.200E+01 1.86203E+02 2.76933E+02 9.99995E-01
 1.400E+01 1.61826E+02 2.77117E+02 9.99987E-01
 1.600E+01 1.22844E+02 2.26857E+02 9.99969E-01
 1.800E+01 7.26270E+01 1.37980E+02 9.99918E-01
 2.000E+01 3.91203E+01 7.51195E+01 9.99764E-01
