# n +  28Si   : (n,g)             Total
# Q-value    = 8.39469E+00
# E-threshold= 0.00000E+00
# # energies = 50
#    E         xs       gamma xs  xs/res.prod.xs
 1.000E-01 2.12178E+00 3.71621E+00 1.00000E+00
 2.000E-01 1.52169E+00 2.78677E+00 1.00000E+00
 4.000E-01 1.05560E+00 2.00562E+00 1.00000E+00
 6.000E-01 8.82261E-01 1.71614E+00 1.00000E+00
 8.000E-01 8.11840E-01 1.61207E+00 1.00000E+00
 1.000E+00 7.88542E-01 1.59370E+00 1.00000E+00
 1.200E+00 7.96272E-01 1.64045E+00 1.00000E+00
 1.400E+00 8.19414E-01 1.71295E+00 1.00000E+00
 1.600E+00 8.56604E-01 1.81370E+00 1.00000E+00
 1.800E+00 9.05976E-01 1.93984E+00 1.00000E+00
 2.000E+00 5.15835E-01 1.07287E+00 1.00000E+00
 2.200E+00 4.60293E-01 9.28791E-01 1.00000E+00
 2.400E+00 4.48533E-01 8.94794E-01 1.00000E+00
 2.600E+00 4.53806E-01 9.03922E-01 1.00000E+00
 2.800E+00 4.68082E-01 9.34671E-01 1.00000E+00
 3.000E+00 4.88989E-01 9.80868E-01 1.00000E+00
 3.200E+00 5.15149E-01 1.03803E+00 1.00000E+00
 3.400E+00 5.46895E-01 1.10937E+00 1.00000E+00
 3.600E+00 5.83416E-01 1.19177E+00 1.00000E+00
 3.800E+00 6.25158E-01 1.28663E+00 1.00000E+00
 4.000E+00 6.71390E-01 1.39316E+00 1.00000E+00
 4.200E+00 7.23070E-01 1.51468E+00 1.00000E+00
 4.400E+00 7.78201E-01 1.64702E+00 1.00000E+00
 4.600E+00 8.37959E-01 1.79411E+00 1.00000E+00
 4.800E+00 8.80052E-01 1.88529E+00 1.00000E+00
 5.000E+00 9.03458E-01 1.92120E+00 1.00000E+00
 5.200E+00 9.27933E-01 1.99662E+00 1.00000E+00
 5.400E+00 9.51084E-01 2.07635E+00 1.00000E+00
 5.600E+00 9.80751E-01 2.17032E+00 1.00000E+00
 5.800E+00 1.00833E+00 2.26265E+00 1.00000E+00
 6.000E+00 1.02831E+00 2.33922E+00 1.00000E+00
 6.200E+00 1.04123E+00 2.40099E+00 1.00000E+00
 6.400E+00 1.04650E+00 2.44715E+00 1.00000E+00
 6.600E+00 1.01644E+00 2.40703E+00 1.00000E+00
 6.800E+00 9.83887E-01 2.35975E+00 1.00000E+00
 7.000E+00 9.49863E-01 2.31615E+00 1.00000E+00
 7.200E+00 8.97937E-01 2.21981E+00 1.00000E+00
 7.400E+00 8.32451E-01 2.08618E+00 1.00000E+00
 7.600E+00 7.81365E-01 1.98796E+00 1.00000E+00
 7.800E+00 7.16682E-01 1.85625E+00 1.00000E+00
 8.000E+00 6.77140E-01 1.78334E+00 1.00000E+00
 8.500E+00 5.97805E-01 1.63328E+00 1.00000E+00
 9.000E+00 9.55108E-01 2.52492E+00 1.00000E+00
 9.500E+00 9.22277E-01 2.46758E+00 1.00000E+00
 1.000E+01 9.01411E-01 2.42612E+00 1.00000E+00
 1.200E+01 8.81895E-01 2.37186E+00 1.00000E+00
 1.400E+01 8.71416E-01 2.30352E+00 1.00000E+00
 1.600E+01 8.30469E-01 2.21967E+00 1.00000E+00
 1.800E+01 7.80845E-01 2.18502E+00 1.00000E+00
 2.000E+01 7.15952E-01 2.10029E+00 1.00000E+00
