# n +  28Si   : (n,n')            Total
# Q-value    = 0.00000E+00
# E-threshold= 1.84317E+00
# # energies =    50
#     E          xs       gamma xs  xs/res.prod.xs
 1.00000E-01 0.00000E+00 0.00000E+00 0.00000E+00
 2.00000E-01 0.00000E+00 0.00000E+00 0.00000E+00
 4.00000E-01 0.00000E+00 0.00000E+00 0.00000E+00
 6.00000E-01 0.00000E+00 0.00000E+00 0.00000E+00
 8.00000E-01 0.00000E+00 0.00000E+00 0.00000E+00
 1.00000E+00 0.00000E+00 0.00000E+00 0.00000E+00
 1.20000E+00 0.00000E+00 0.00000E+00 0.00000E+00
 1.40000E+00 0.00000E+00 0.00000E+00 0.00000E+00
 1.60000E+00 0.00000E+00 0.00000E+00 0.00000E+00
 1.80000E+00 0.00000E+00 0.00000E+00 0.00000E+00
 2.00000E+00 2.77011E+02 2.77011E+02 9.99991E-01
 2.20000E+00 4.16391E+02 4.16391E+02 9.99994E-01
 2.40000E+00 4.91875E+02 4.91875E+02 9.99993E-01
 2.60000E+00 5.39944E+02 5.39944E+02 9.99992E-01
 2.80000E+00 5.74137E+02 5.74137E+02 9.99991E-01
 3.00000E+00 6.00544E+02 6.00544E+02 9.99989E-01
 3.20000E+00 6.15865E+02 6.15865E+02 9.99987E-01
 3.40000E+00 6.34385E+02 6.34385E+02 9.99983E-01
 3.60000E+00 6.50808E+02 6.50808E+02 9.99980E-01
 3.80000E+00 6.65102E+02 6.65102E+02 9.99975E-01
 4.00000E+00 6.77202E+02 6.77202E+02 9.99970E-01
 4.20000E+00 6.88243E+02 6.88243E+02 9.99965E-01
 4.40000E+00 6.98448E+02 6.98448E+02 9.99956E-01
 4.60000E+00 7.07829E+02 7.07829E+02 9.99948E-01
 4.80000E+00 7.18914E+02 7.27307E+02 9.99940E-01
 5.00000E+00 7.45938E+02 8.05193E+02 9.99935E-01
 5.20000E+00 7.68667E+02 8.67379E+02 9.99929E-01
 5.40000E+00 7.90567E+02 9.32744E+02 9.99922E-01
 5.60000E+00 7.99025E+02 9.68086E+02 9.99912E-01
 5.80000E+00 7.97094E+02 9.82916E+02 9.99901E-01
 6.00000E+00 7.86967E+02 9.83396E+02 9.99888E-01
 6.20000E+00 7.70400E+02 9.73386E+02 9.99870E-01
 6.40000E+00 7.49024E+02 9.55729E+02 9.99852E-01
 6.60000E+00 7.36264E+02 9.69191E+02 9.99839E-01
 6.80000E+00 7.25393E+02 9.88096E+02 9.99827E-01
 7.00000E+00 7.09424E+02 9.90763E+02 9.99810E-01
 7.20000E+00 7.01651E+02 1.00227E+03 9.99800E-01
 7.40000E+00 6.99925E+02 1.01657E+03 9.99796E-01
 7.60000E+00 6.87680E+02 1.01018E+03 9.99785E-01
 7.80000E+00 6.87586E+02 1.01553E+03 9.99782E-01
 8.00000E+00 6.82007E+02 1.00905E+03 9.99772E-01
 8.50000E+00 6.61285E+02 1.00125E+03 9.99741E-01
 9.00000E+00 6.44261E+02 1.01140E+03 9.99714E-01
 9.50000E+00 6.28263E+02 1.02040E+03 9.99682E-01
 1.00000E+01 6.13452E+02 1.03074E+03 9.99642E-01
 1.20000E+01 5.78076E+02 1.08211E+03 9.99492E-01
 1.40000E+01 4.34952E+02 8.47361E+02 9.99148E-01
 1.60000E+01 2.85021E+02 5.44081E+02 9.98495E-01
 1.80000E+01 2.00383E+02 3.68134E+02 9.97690E-01
 2.00000E+01 1.56869E+02 2.76932E+02 9.96920E-01
