# n + 208Pb: Gamma-ray intensity - 208Pb: Level 22 --> Level  2 - gamma energy    1.185574
# E-initial  =   4.383285 E-final=   3.197711
# E-threshold= 4.40454E+00
# # energies =    67
#    E           xs
 1.00000E-11 0.00000E+00
 2.53000E-08 0.00000E+00
 2.00000E-07 0.00000E+00
 1.00000E-06 0.00000E+00
 1.00000E-03 0.00000E+00
 2.00000E-03 0.00000E+00
 5.00000E-03 0.00000E+00
 1.00000E-02 0.00000E+00
 2.00000E-02 0.00000E+00
 5.00000E-02 0.00000E+00
 1.00000E-01 0.00000E+00
 2.00000E-01 0.00000E+00
 3.00000E-01 0.00000E+00
 4.00000E-01 0.00000E+00
 5.00000E-01 0.00000E+00
 7.50000E-01 0.00000E+00
 1.00000E+00 0.00000E+00
 1.20000E+00 0.00000E+00
 1.40000E+00 0.00000E+00
 1.60000E+00 0.00000E+00
 1.80000E+00 0.00000E+00
 2.00000E+00 0.00000E+00
 2.20000E+00 0.00000E+00
 2.40000E+00 0.00000E+00
 2.60000E+00 0.00000E+00
 2.80000E+00 0.00000E+00
 3.00000E+00 0.00000E+00
 3.20000E+00 0.00000E+00
 3.40000E+00 0.00000E+00
 3.60000E+00 0.00000E+00
 3.80000E+00 0.00000E+00
 4.00000E+00 0.00000E+00
 4.20000E+00 0.00000E+00
 4.40000E+00 0.00000E+00
 4.60000E+00 1.30221E+01
 4.80000E+00 2.01987E+01
 5.00000E+00 2.47869E+01
 5.50000E+00 2.85688E+01
 6.00000E+00 2.97786E+01
 6.50000E+00 3.15082E+01
 7.00000E+00 3.35685E+01
 7.50000E+00 3.61022E+01
 8.00000E+00 3.85473E+01
 8.50000E+00 3.91388E+01
 9.00000E+00 3.62058E+01
 9.50000E+00 3.07994E+01
 1.00000E+01 2.44297E+01
 1.10000E+01 1.37154E+01
 1.20000E+01 7.67900E+00
 1.30000E+01 4.97957E+00
 1.40000E+01 3.80891E+00
 1.50000E+01 3.28943E+00
 1.60000E+01 3.00425E+00
 1.70000E+01 2.84454E+00
 1.80000E+01 2.64468E+00
 1.90000E+01 2.47151E+00
 2.00000E+01 2.35509E+00
 2.10000E+01 2.23484E+00
 2.20000E+01 2.10742E+00
 2.30000E+01 2.01143E+00
 2.40000E+01 1.89798E+00
 2.50000E+01 1.76912E+00
 2.60000E+01 1.67057E+00
 2.70000E+01 1.56812E+00
 2.80000E+01 1.48535E+00
 2.90000E+01 1.42418E+00
 3.00000E+01 1.36499E+00
