# n + 208Pb: Gamma-ray intensity - 209Pb: Level  1 --> Level  0 - gamma energy    0.778800
# E-initial  =   0.778800 E-final=   0.000000
# E-threshold= 0.00000E+00
# # energies =    67
#    E           xs
 1.00000E-11 0.00000E+00
 2.53000E-08 0.00000E+00
 2.00000E-07 0.00000E+00
 1.00000E-06 1.76631E-05
 1.00000E-03 4.40418E-05
 2.00000E-03 7.51114E-05
 5.00000E-03 9.77753E-05
 1.00000E-02 7.70944E-05
 2.00000E-02 4.88831E-05
 5.00000E-02 2.66720E-04
 1.00000E-01 7.57396E-04
 2.00000E-01 2.55500E-03
 3.00000E-01 5.05435E-03
 4.00000E-01 7.69157E-03
 5.00000E-01 1.05668E-02
 7.50000E-01 1.72416E-02
 1.00000E+00 2.62378E-02
 1.20000E+00 3.42520E-02
 1.40000E+00 4.53579E-02
 1.60000E+00 5.85535E-02
 1.80000E+00 7.51177E-02
 2.00000E+00 9.59461E-02
 2.20000E+00 1.21691E-01
 2.40000E+00 1.53427E-01
 2.60000E+00 1.92345E-01
 2.80000E+00 1.92712E-01
 3.00000E+00 1.86405E-01
 3.20000E+00 1.89050E-01
 3.40000E+00 1.00490E-01
 3.60000E+00 8.83874E-02
 3.80000E+00 7.86368E-02
 4.00000E+00 6.94008E-02
 4.20000E+00 5.89031E-02
 4.40000E+00 4.97316E-02
 4.60000E+00 4.47143E-02
 4.80000E+00 5.93156E-02
 5.00000E+00 6.35867E-02
 5.50000E+00 7.27832E-02
 6.00000E+00 8.89826E-02
 6.50000E+00 1.18449E-01
 7.00000E+00 1.71021E-01
 7.50000E+00 2.55362E-01
 8.00000E+00 3.56712E-01
 8.50000E+00 4.32470E-01
 9.00000E+00 4.64260E-01
 9.50000E+00 4.49745E-01
 1.00000E+01 4.37705E-01
 1.10000E+01 3.73334E-01
 1.20000E+01 3.44794E-01
 1.30000E+01 3.06546E-01
 1.40000E+01 2.59156E-01
 1.50000E+01 2.10604E-01
 1.60000E+01 1.69824E-01
 1.70000E+01 1.43088E-01
 1.80000E+01 1.24877E-01
 1.90000E+01 1.11454E-01
 2.00000E+01 1.02447E-01
 2.10000E+01 9.30690E-02
 2.20000E+01 8.62303E-02
 2.30000E+01 8.06126E-02
 2.40000E+01 7.52216E-02
 2.50000E+01 7.14179E-02
 2.60000E+01 6.78530E-02
 2.70000E+01 6.50666E-02
 2.80000E+01 6.27650E-02
 2.90000E+01 6.07080E-02
 3.00000E+01 5.89189E-02
