# n + 208Pb: Gamma-ray intensity - 208Pb: Level 23 --> Level  2 - gamma energy    1.225940
# E-initial  =   4.423650 E-final=   3.197710
# E-threshold= 4.44510E+00
# # energies = 67
#    E         xs
 1.000E-11 0.00000E+00
 2.530E-08 0.00000E+00
 2.000E-07 0.00000E+00
 1.000E-06 0.00000E+00
 1.000E-03 0.00000E+00
 2.000E-03 0.00000E+00
 5.000E-03 0.00000E+00
 1.000E-02 0.00000E+00
 2.000E-02 0.00000E+00
 5.000E-02 0.00000E+00
 1.000E-01 0.00000E+00
 2.000E-01 0.00000E+00
 3.000E-01 0.00000E+00
 4.000E-01 0.00000E+00
 5.000E-01 0.00000E+00
 7.500E-01 0.00000E+00
 1.000E+00 0.00000E+00
 1.200E+00 0.00000E+00
 1.400E+00 0.00000E+00
 1.600E+00 0.00000E+00
 1.800E+00 0.00000E+00
 2.000E+00 0.00000E+00
 2.200E+00 0.00000E+00
 2.400E+00 0.00000E+00
 2.600E+00 0.00000E+00
 2.800E+00 0.00000E+00
 3.000E+00 0.00000E+00
 3.200E+00 0.00000E+00
 3.400E+00 0.00000E+00
 3.600E+00 0.00000E+00
 3.800E+00 0.00000E+00
 4.000E+00 0.00000E+00
 4.200E+00 0.00000E+00
 4.400E+00 0.00000E+00
 4.600E+00 8.82016E+00
 4.800E+00 1.85476E+01
 5.000E+00 2.53468E+01
 5.500E+00 4.06390E+01
 6.000E+00 5.68671E+01
 6.500E+00 6.83035E+01
 7.000E+00 7.54365E+01
 7.500E+00 8.19607E+01
 8.000E+00 8.70303E+01
 8.500E+00 8.76812E+01
 9.000E+00 8.16976E+01
 9.500E+00 7.09608E+01
 1.000E+01 5.82902E+01
 1.100E+01 3.59090E+01
 1.200E+01 2.22932E+01
 1.300E+01 1.56088E+01
 1.400E+01 1.24541E+01
 1.500E+01 1.08992E+01
 1.600E+01 9.96350E+00
 1.700E+01 9.38057E+00
 1.800E+01 8.78363E+00
 1.900E+01 8.27772E+00
 2.000E+01 7.88018E+00
 2.100E+01 7.49580E+00
 2.200E+01 7.10715E+00
 2.300E+01 6.77741E+00
 2.400E+01 6.42952E+00
 2.500E+01 5.99631E+00
 2.600E+01 5.59639E+00
 2.700E+01 5.31471E+00
 2.800E+01 5.09781E+00
 2.900E+01 4.90176E+00
 3.000E+01 4.71175E+00
