# n + 208Pb: Gamma-ray intensity - 207Pb: Level  2 --> Level  1 - gamma energy    0.328000
# E-initial  =   0.897698 E-final=   0.569698
# E-threshold= 8.30566E+00
# # energies = 67
#    E         xs
 1.000E-11 0.00000E+00
 2.530E-08 0.00000E+00
 2.000E-07 0.00000E+00
 1.000E-06 0.00000E+00
 1.000E-03 0.00000E+00
 2.000E-03 0.00000E+00
 5.000E-03 0.00000E+00
 1.000E-02 0.00000E+00
 2.000E-02 0.00000E+00
 5.000E-02 0.00000E+00
 1.000E-01 0.00000E+00
 2.000E-01 0.00000E+00
 3.000E-01 0.00000E+00
 4.000E-01 0.00000E+00
 5.000E-01 0.00000E+00
 7.500E-01 0.00000E+00
 1.000E+00 0.00000E+00
 1.200E+00 0.00000E+00
 1.400E+00 0.00000E+00
 1.600E+00 0.00000E+00
 1.800E+00 0.00000E+00
 2.000E+00 0.00000E+00
 2.200E+00 0.00000E+00
 2.400E+00 0.00000E+00
 2.600E+00 0.00000E+00
 2.800E+00 0.00000E+00
 3.000E+00 0.00000E+00
 3.200E+00 0.00000E+00
 3.400E+00 0.00000E+00
 3.600E+00 0.00000E+00
 3.800E+00 0.00000E+00
 4.000E+00 0.00000E+00
 4.200E+00 0.00000E+00
 4.400E+00 0.00000E+00
 4.600E+00 0.00000E+00
 4.800E+00 0.00000E+00
 5.000E+00 0.00000E+00
 5.500E+00 0.00000E+00
 6.000E+00 0.00000E+00
 6.500E+00 0.00000E+00
 7.000E+00 0.00000E+00
 7.500E+00 0.00000E+00
 8.000E+00 0.00000E+00
 8.500E+00 5.49038E-03
 9.000E+00 1.05437E-01
 9.500E+00 3.16932E-01
 1.000E+01 5.59558E-01
 1.100E+01 9.93820E-01
 1.200E+01 1.18465E+00
 1.300E+01 1.16213E+00
 1.400E+01 1.06020E+00
 1.500E+01 9.54400E-01
 1.600E+01 8.37969E-01
 1.700E+01 7.05700E-01
 1.800E+01 5.80527E-01
 1.900E+01 4.69276E-01
 2.000E+01 3.84316E-01
 2.100E+01 3.13522E-01
 2.200E+01 2.66667E-01
 2.300E+01 2.32575E-01
 2.400E+01 2.09303E-01
 2.500E+01 1.91753E-01
 2.600E+01 1.80004E-01
 2.700E+01 1.69737E-01
 2.800E+01 1.62683E-01
 2.900E+01 1.55403E-01
 3.000E+01 1.49958E-01
