# n + 208Pb: Gamma-ray intensity - 208Pb: Level 26 --> Level  9 - gamma energy    0.573305
# E-initial  =   4.610748 E-final=   4.037443
# E-threshold= 4.63311E+00
# # energies =    67
#    E           xs
 1.00000E-11 0.00000E+00
 2.53000E-08 0.00000E+00
 2.00000E-07 0.00000E+00
 1.00000E-06 0.00000E+00
 1.00000E-03 0.00000E+00
 2.00000E-03 0.00000E+00
 5.00000E-03 0.00000E+00
 1.00000E-02 0.00000E+00
 2.00000E-02 0.00000E+00
 5.00000E-02 0.00000E+00
 1.00000E-01 0.00000E+00
 2.00000E-01 0.00000E+00
 3.00000E-01 0.00000E+00
 4.00000E-01 0.00000E+00
 5.00000E-01 0.00000E+00
 7.50000E-01 0.00000E+00
 1.00000E+00 0.00000E+00
 1.20000E+00 0.00000E+00
 1.40000E+00 0.00000E+00
 1.60000E+00 0.00000E+00
 1.80000E+00 0.00000E+00
 2.00000E+00 0.00000E+00
 2.20000E+00 0.00000E+00
 2.40000E+00 0.00000E+00
 2.60000E+00 0.00000E+00
 2.80000E+00 0.00000E+00
 3.00000E+00 0.00000E+00
 3.20000E+00 0.00000E+00
 3.40000E+00 0.00000E+00
 3.60000E+00 0.00000E+00
 3.80000E+00 0.00000E+00
 4.00000E+00 0.00000E+00
 4.20000E+00 0.00000E+00
 4.40000E+00 0.00000E+00
 4.60000E+00 0.00000E+00
 4.80000E+00 1.26476E-02
 5.00000E+00 3.50342E-02
 5.50000E+00 1.63146E-01
 6.00000E+00 4.05854E-01
 6.50000E+00 7.12664E-01
 7.00000E+00 1.06873E+00
 7.50000E+00 1.49964E+00
 8.00000E+00 1.97948E+00
 8.50000E+00 2.45121E+00
 9.00000E+00 2.81998E+00
 9.50000E+00 2.96705E+00
 1.00000E+01 2.85762E+00
 1.10000E+01 2.24817E+00
 1.20000E+01 1.54050E+00
 1.30000E+01 1.08161E+00
 1.40000E+01 8.67752E-01
 1.50000E+01 7.66584E-01
 1.60000E+01 7.27982E-01
 1.70000E+01 7.18893E-01
 1.80000E+01 6.97286E-01
 1.90000E+01 6.77491E-01
 2.00000E+01 6.73244E-01
 2.10000E+01 6.59984E-01
 2.20000E+01 6.44988E-01
 2.30000E+01 6.30059E-01
 2.40000E+01 6.12403E-01
 2.50000E+01 5.78153E-01
 2.60000E+01 5.50367E-01
 2.70000E+01 5.26151E-01
 2.80000E+01 4.95470E-01
 2.90000E+01 4.73667E-01
 3.00000E+01 4.53289E-01
