# n + 208Pb: Gamma-ray intensity - 208Pb: Level 17 --> Level  3 - gamma energy    0.705300
# E-initial  =   4.180410 E-final=   3.475110
# E-threshold= 4.20068E+00
# # energies = 67
#    E         xs
 1.000E-11 0.00000E+00
 2.530E-08 0.00000E+00
 2.000E-07 0.00000E+00
 1.000E-06 0.00000E+00
 1.000E-03 0.00000E+00
 2.000E-03 0.00000E+00
 5.000E-03 0.00000E+00
 1.000E-02 0.00000E+00
 2.000E-02 0.00000E+00
 5.000E-02 0.00000E+00
 1.000E-01 0.00000E+00
 2.000E-01 0.00000E+00
 3.000E-01 0.00000E+00
 4.000E-01 0.00000E+00
 5.000E-01 0.00000E+00
 7.500E-01 0.00000E+00
 1.000E+00 0.00000E+00
 1.200E+00 0.00000E+00
 1.400E+00 0.00000E+00
 1.600E+00 0.00000E+00
 1.800E+00 0.00000E+00
 2.000E+00 0.00000E+00
 2.200E+00 0.00000E+00
 2.400E+00 0.00000E+00
 2.600E+00 0.00000E+00
 2.800E+00 0.00000E+00
 3.000E+00 0.00000E+00
 3.200E+00 0.00000E+00
 3.400E+00 0.00000E+00
 3.600E+00 0.00000E+00
 3.800E+00 0.00000E+00
 4.000E+00 0.00000E+00
 4.200E+00 0.00000E+00
 4.400E+00 3.52943E+00
 4.600E+00 4.97929E+00
 4.800E+00 5.68754E+00
 5.000E+00 5.91359E+00
 5.500E+00 5.67553E+00
 6.000E+00 5.33096E+00
 6.500E+00 5.11862E+00
 7.000E+00 5.02051E+00
 7.500E+00 5.04677E+00
 8.000E+00 5.00992E+00
 8.500E+00 4.69960E+00
 9.000E+00 4.09581E+00
 9.500E+00 3.38594E+00
 1.000E+01 2.68626E+00
 1.100E+01 1.60609E+00
 1.200E+01 1.01919E+00
 1.300E+01 7.35163E-01
 1.400E+01 5.98517E-01
 1.500E+01 5.28598E-01
 1.600E+01 4.86729E-01
 1.700E+01 4.62936E-01
 1.800E+01 4.36150E-01
 1.900E+01 4.15035E-01
 2.000E+01 3.97655E-01
 2.100E+01 3.81804E-01
 2.200E+01 3.69737E-01
 2.300E+01 3.54886E-01
 2.400E+01 3.39278E-01
 2.500E+01 3.27012E-01
 2.600E+01 3.12526E-01
 2.700E+01 3.01938E-01
 2.800E+01 2.88849E-01
 2.900E+01 2.81501E-01
 3.000E+01 2.70263E-01
