# n + 208Pb: Gamma-ray intensity - 209Pb: Level  9 --> Level  0 - gamma energy    2.491000
# E-initial  =   2.491000 E-final=   0.000000
# E-threshold= 0.00000E+00
# # energies = 67
#    E         xs
 1.000E-11 0.00000E+00
 2.530E-08 0.00000E+00
 2.000E-07 0.00000E+00
 1.000E-06 3.32943E-03
 1.000E-03 1.89926E-03
 2.000E-03 2.60871E-03
 5.000E-03 3.49080E-03
 1.000E-02 2.93430E-03
 2.000E-02 1.94143E-03
 5.000E-02 3.56968E-03
 1.000E-01 4.10016E-03
 2.000E-01 3.53615E-03
 3.000E-01 3.23069E-03
 4.000E-01 3.15668E-03
 5.000E-01 3.24971E-03
 7.500E-01 3.79961E-03
 1.000E+00 4.52739E-03
 1.200E+00 5.21222E-03
 1.400E+00 6.05411E-03
 1.600E+00 6.95773E-03
 1.800E+00 8.07681E-03
 2.000E+00 9.40007E-03
 2.200E+00 1.09486E-02
 2.400E+00 1.27811E-02
 2.600E+00 1.56134E-02
 2.800E+00 1.20520E-02
 3.000E+00 1.18012E-02
 3.200E+00 1.29502E-02
 3.400E+00 1.25989E-02
 3.600E+00 1.30681E-02
 3.800E+00 1.35047E-02
 4.000E+00 1.43351E-02
 4.200E+00 1.28973E-02
 4.400E+00 1.05086E-02
 4.600E+00 8.43985E-03
 4.800E+00 6.72698E-03
 5.000E+00 5.54427E-03
 5.500E+00 3.73637E-03
 6.000E+00 2.80717E-03
 6.500E+00 2.30196E-03
 7.000E+00 2.19526E-03
 7.500E+00 2.39831E-03
 8.000E+00 3.07881E-03
 8.500E+00 4.40501E-03
 9.000E+00 6.75427E-03
 9.500E+00 1.09442E-02
 1.000E+01 1.73170E-02
 1.100E+01 2.59564E-02
 1.200E+01 1.95797E-02
 1.300E+01 1.30689E-02
 1.400E+01 9.38471E-03
 1.500E+01 7.60594E-03
 1.600E+01 6.47159E-03
 1.700E+01 5.51465E-03
 1.800E+01 4.81162E-03
 1.900E+01 4.30670E-03
 2.000E+01 3.93347E-03
 2.100E+01 3.82839E-03
 2.200E+01 3.67283E-03
 2.300E+01 3.66725E-03
 2.400E+01 3.54859E-03
 2.500E+01 3.54483E-03
 2.600E+01 3.56045E-03
 2.700E+01 3.51509E-03
 2.800E+01 3.41457E-03
 2.900E+01 3.38801E-03
 3.000E+01 3.40267E-03
