# n + 208Pb: Gamma-ray intensity - 208Pb: Level 28 --> Level  1 - gamma energy    2.083800
# E-initial  =   4.698320 E-final=   2.614520
# E-threshold= 4.72111E+00
# # energies = 67
#    E         xs
 1.000E-11 0.00000E+00
 2.530E-08 0.00000E+00
 2.000E-07 0.00000E+00
 1.000E-06 0.00000E+00
 1.000E-03 0.00000E+00
 2.000E-03 0.00000E+00
 5.000E-03 0.00000E+00
 1.000E-02 0.00000E+00
 2.000E-02 0.00000E+00
 5.000E-02 0.00000E+00
 1.000E-01 0.00000E+00
 2.000E-01 0.00000E+00
 3.000E-01 0.00000E+00
 4.000E-01 0.00000E+00
 5.000E-01 0.00000E+00
 7.500E-01 0.00000E+00
 1.000E+00 0.00000E+00
 1.200E+00 0.00000E+00
 1.400E+00 0.00000E+00
 1.600E+00 0.00000E+00
 1.800E+00 0.00000E+00
 2.000E+00 0.00000E+00
 2.200E+00 0.00000E+00
 2.400E+00 0.00000E+00
 2.600E+00 0.00000E+00
 2.800E+00 0.00000E+00
 3.000E+00 0.00000E+00
 3.200E+00 0.00000E+00
 3.400E+00 0.00000E+00
 3.600E+00 0.00000E+00
 3.800E+00 0.00000E+00
 4.000E+00 0.00000E+00
 4.200E+00 0.00000E+00
 4.400E+00 0.00000E+00
 4.600E+00 0.00000E+00
 4.800E+00 1.66085E+00
 5.000E+00 3.47535E+00
 5.500E+00 4.87110E+00
 6.000E+00 4.37058E+00
 6.500E+00 3.88735E+00
 7.000E+00 3.50901E+00
 7.500E+00 3.17099E+00
 8.000E+00 2.71360E+00
 8.500E+00 2.16728E+00
 9.000E+00 1.67772E+00
 9.500E+00 1.24128E+00
 1.000E+01 8.97707E-01
 1.100E+01 4.71523E-01
 1.200E+01 2.76630E-01
 1.300E+01 1.86789E-01
 1.400E+01 1.48902E-01
 1.500E+01 1.29298E-01
 1.600E+01 1.18468E-01
 1.700E+01 1.13744E-01
 1.800E+01 1.06927E-01
 1.900E+01 1.00681E-01
 2.000E+01 9.81675E-02
 2.100E+01 9.50321E-02
 2.200E+01 9.02427E-02
 2.300E+01 8.79152E-02
 2.400E+01 8.45640E-02
 2.500E+01 8.03267E-02
 2.600E+01 7.77540E-02
 2.700E+01 7.61468E-02
 2.800E+01 7.42936E-02
 2.900E+01 7.17225E-02
 3.000E+01 7.00480E-02
