# n + 208Pb: Gamma-ray intensity - 209Pb: Level  1 --> Level  0 - gamma energy    0.778800
# E-initial  =   0.778800 E-final=   0.000000
# E-threshold= 0.00000E+00
# # energies = 67
#    E         xs
 1.000E-11 0.00000E+00
 2.530E-08 0.00000E+00
 2.000E-07 0.00000E+00
 1.000E-06 3.09654E-05
 1.000E-03 5.19054E-05
 2.000E-03 8.43591E-05
 5.000E-03 1.07711E-04
 1.000E-02 8.45842E-05
 2.000E-02 5.35864E-05
 5.000E-02 2.95380E-04
 1.000E-01 7.98052E-04
 2.000E-01 2.59402E-03
 3.000E-01 5.11022E-03
 4.000E-01 7.79080E-03
 5.000E-01 1.07417E-02
 7.500E-01 1.77410E-02
 1.000E+00 2.72911E-02
 1.200E+00 3.60532E-02
 1.400E+00 4.82709E-02
 1.600E+00 6.31343E-02
 1.800E+00 8.21242E-02
 2.000E+00 1.06381E-01
 2.200E+00 1.36927E-01
 2.400E+00 1.75264E-01
 2.600E+00 2.23139E-01
 2.800E+00 2.29164E-01
 3.000E+00 2.26404E-01
 3.200E+00 2.34308E-01
 3.400E+00 1.26854E-01
 3.600E+00 1.12503E-01
 3.800E+00 1.00661E-01
 4.000E+00 8.87791E-02
 4.200E+00 7.45645E-02
 4.400E+00 6.30682E-02
 4.600E+00 5.68148E-02
 4.800E+00 7.07886E-02
 5.000E+00 7.51224E-02
 5.500E+00 8.54814E-02
 6.000E+00 1.03096E-01
 6.500E+00 1.34021E-01
 7.000E+00 1.87661E-01
 7.500E+00 2.72223E-01
 8.000E+00 3.72629E-01
 8.500E+00 4.47008E-01
 9.000E+00 4.77725E-01
 9.500E+00 4.63839E-01
 1.000E+01 4.52769E-01
 1.100E+01 3.93236E-01
 1.200E+01 3.65347E-01
 1.300E+01 3.23356E-01
 1.400E+01 2.69704E-01
 1.500E+01 2.14665E-01
 1.600E+01 1.70011E-01
 1.700E+01 1.41310E-01
 1.800E+01 1.22781E-01
 1.900E+01 1.09373E-01
 2.000E+01 1.00778E-01
 2.100E+01 9.21989E-02
 2.200E+01 8.62887E-02
 2.300E+01 8.11396E-02
 2.400E+01 7.61162E-02
 2.500E+01 7.21718E-02
 2.600E+01 6.82999E-02
 2.700E+01 6.53610E-02
 2.800E+01 6.28433E-02
 2.900E+01 6.07253E-02
 3.000E+01 5.88770E-02
