# n + 208Pb: Gamma-ray intensity - 208Pb: Level  6 --> Level  2 - gamma energy    0.748700
# E-initial  =   3.946440 E-final=   3.197740
# E-threshold= 3.96558E+00
# # energies = 67
#    E         xs
 1.000E-11 0.00000E+00
 2.530E-08 0.00000E+00
 2.000E-07 0.00000E+00
 1.000E-06 0.00000E+00
 1.000E-03 0.00000E+00
 2.000E-03 0.00000E+00
 5.000E-03 0.00000E+00
 1.000E-02 0.00000E+00
 2.000E-02 0.00000E+00
 5.000E-02 0.00000E+00
 1.000E-01 0.00000E+00
 2.000E-01 0.00000E+00
 3.000E-01 0.00000E+00
 4.000E-01 0.00000E+00
 5.000E-01 0.00000E+00
 7.500E-01 0.00000E+00
 1.000E+00 0.00000E+00
 1.200E+00 0.00000E+00
 1.400E+00 0.00000E+00
 1.600E+00 0.00000E+00
 1.800E+00 0.00000E+00
 2.000E+00 0.00000E+00
 2.200E+00 0.00000E+00
 2.400E+00 0.00000E+00
 2.600E+00 0.00000E+00
 2.800E+00 0.00000E+00
 3.000E+00 0.00000E+00
 3.200E+00 0.00000E+00
 3.400E+00 0.00000E+00
 3.600E+00 0.00000E+00
 3.800E+00 0.00000E+00
 4.000E+00 2.84920E+01
 4.200E+00 7.94562E+01
 4.400E+00 9.57477E+01
 4.600E+00 9.19411E+01
 4.800E+00 8.27630E+01
 5.000E+00 7.47059E+01
 5.500E+00 6.42062E+01
 6.000E+00 6.01835E+01
 6.500E+00 5.79464E+01
 7.000E+00 5.67151E+01
 7.500E+00 5.59746E+01
 8.000E+00 5.22212E+01
 8.500E+00 4.42297E+01
 9.000E+00 3.48219E+01
 9.500E+00 2.63708E+01
 1.000E+01 1.95312E+01
 1.100E+01 1.11446E+01
 1.200E+01 7.51321E+00
 1.300E+01 5.91593E+00
 1.400E+01 5.14382E+00
 1.500E+01 4.71300E+00
 1.600E+01 4.42100E+00
 1.700E+01 4.25952E+00
 1.800E+01 4.05331E+00
 1.900E+01 3.87453E+00
 2.000E+01 3.72761E+00
 2.100E+01 3.59784E+00
 2.200E+01 3.46129E+00
 2.300E+01 3.33684E+00
 2.400E+01 3.20241E+00
 2.500E+01 3.08435E+00
 2.600E+01 2.95497E+00
 2.700E+01 2.84870E+00
 2.800E+01 2.75669E+00
 2.900E+01 2.68349E+00
 3.000E+01 2.59188E+00
