# n + 208Pb: Gamma-ray intensity - 208Pb: Level 14 --> Level  3 - gamma energy    0.650200
# E-initial  =   4.125310 E-final=   3.475110
# E-threshold= 4.14532E+00
# # energies = 67
#    E         xs
 1.000E-11 0.00000E+00
 2.530E-08 0.00000E+00
 2.000E-07 0.00000E+00
 1.000E-06 0.00000E+00
 1.000E-03 0.00000E+00
 2.000E-03 0.00000E+00
 5.000E-03 0.00000E+00
 1.000E-02 0.00000E+00
 2.000E-02 0.00000E+00
 5.000E-02 0.00000E+00
 1.000E-01 0.00000E+00
 2.000E-01 0.00000E+00
 3.000E-01 0.00000E+00
 4.000E-01 0.00000E+00
 5.000E-01 0.00000E+00
 7.500E-01 0.00000E+00
 1.000E+00 0.00000E+00
 1.200E+00 0.00000E+00
 1.400E+00 0.00000E+00
 1.600E+00 0.00000E+00
 1.800E+00 0.00000E+00
 2.000E+00 0.00000E+00
 2.200E+00 0.00000E+00
 2.400E+00 0.00000E+00
 2.600E+00 0.00000E+00
 2.800E+00 0.00000E+00
 3.000E+00 0.00000E+00
 3.200E+00 0.00000E+00
 3.400E+00 0.00000E+00
 3.600E+00 0.00000E+00
 3.800E+00 0.00000E+00
 4.000E+00 0.00000E+00
 4.200E+00 5.73725E+00
 4.400E+00 1.26435E+01
 4.600E+00 1.60437E+01
 4.800E+00 1.71974E+01
 5.000E+00 1.71234E+01
 5.500E+00 1.52956E+01
 6.000E+00 1.35233E+01
 6.500E+00 1.22072E+01
 7.000E+00 1.13072E+01
 7.500E+00 1.08238E+01
 8.000E+00 1.01952E+01
 8.500E+00 9.05376E+00
 9.000E+00 7.57219E+00
 9.500E+00 6.04764E+00
 1.000E+01 4.65264E+00
 1.100E+01 2.66251E+00
 1.200E+01 1.63262E+00
 1.300E+01 1.14033E+00
 1.400E+01 9.05243E-01
 1.500E+01 7.83916E-01
 1.600E+01 7.09572E-01
 1.700E+01 6.72289E-01
 1.800E+01 6.31231E-01
 1.900E+01 5.96742E-01
 2.000E+01 5.69859E-01
 2.100E+01 5.47452E-01
 2.200E+01 5.35286E-01
 2.300E+01 5.13855E-01
 2.400E+01 4.92904E-01
 2.500E+01 4.75894E-01
 2.600E+01 4.53063E-01
 2.700E+01 4.37686E-01
 2.800E+01 4.21678E-01
 2.900E+01 4.09676E-01
 3.000E+01 3.93964E-01
