# n + 208Pb: Gamma-ray intensity - 208Pb: Level 18 --> Level  2 - gamma energy    1.007660
# E-initial  =   4.205400 E-final=   3.197740
# E-threshold= 4.22580E+00
# # energies = 67
#    E         xs
 1.000E-11 0.00000E+00
 2.530E-08 0.00000E+00
 2.000E-07 0.00000E+00
 1.000E-06 0.00000E+00
 1.000E-03 0.00000E+00
 2.000E-03 0.00000E+00
 5.000E-03 0.00000E+00
 1.000E-02 0.00000E+00
 2.000E-02 0.00000E+00
 5.000E-02 0.00000E+00
 1.000E-01 0.00000E+00
 2.000E-01 0.00000E+00
 3.000E-01 0.00000E+00
 4.000E-01 0.00000E+00
 5.000E-01 0.00000E+00
 7.500E-01 0.00000E+00
 1.000E+00 0.00000E+00
 1.200E+00 0.00000E+00
 1.400E+00 0.00000E+00
 1.600E+00 0.00000E+00
 1.800E+00 0.00000E+00
 2.000E+00 0.00000E+00
 2.200E+00 0.00000E+00
 2.400E+00 0.00000E+00
 2.600E+00 0.00000E+00
 2.800E+00 0.00000E+00
 3.000E+00 0.00000E+00
 3.200E+00 0.00000E+00
 3.400E+00 0.00000E+00
 3.600E+00 0.00000E+00
 3.800E+00 0.00000E+00
 4.000E+00 0.00000E+00
 4.200E+00 0.00000E+00
 4.400E+00 1.63468E+01
 4.600E+00 2.24916E+01
 4.800E+00 2.44175E+01
 5.000E+00 2.43845E+01
 5.500E+00 2.41001E+01
 6.000E+00 2.62019E+01
 6.500E+00 2.93486E+01
 7.000E+00 3.27660E+01
 7.500E+00 3.62258E+01
 8.000E+00 3.90795E+01
 8.500E+00 3.96332E+01
 9.000E+00 3.67900E+01
 9.500E+00 3.12846E+01
 1.000E+01 2.50676E+01
 1.100E+01 1.50173E+01
 1.200E+01 9.52550E+00
 1.300E+01 7.16794E+00
 1.400E+01 6.09218E+00
 1.500E+01 5.60564E+00
 1.600E+01 5.32812E+00
 1.700E+01 5.20546E+00
 1.800E+01 4.98345E+00
 1.900E+01 4.83479E+00
 2.000E+01 4.67091E+00
 2.100E+01 4.52475E+00
 2.200E+01 4.37221E+00
 2.300E+01 4.26912E+00
 2.400E+01 4.08949E+00
 2.500E+01 3.97186E+00
 2.600E+01 3.80134E+00
 2.700E+01 3.69234E+00
 2.800E+01 3.60780E+00
 2.900E+01 3.45374E+00
 3.000E+01 3.37808E+00
