# n + 208Pb: Gamma-ray intensity - 209Pb: Level  2 --> Level  0 - gamma energy    1.423000
# E-initial  =   1.423000 E-final=   0.000000
# E-threshold= 0.00000E+00
# # energies = 67
#    E         xs
 1.000E-11 0.00000E+00
 2.530E-08 0.00000E+00
 2.000E-07 0.00000E+00
 1.000E-06 0.00000E+00
 1.000E-03 0.00000E+00
 2.000E-03 0.00000E+00
 5.000E-03 0.00000E+00
 1.000E-02 0.00000E+00
 2.000E-02 0.00000E+00
 5.000E-02 1.63644E-09
 1.000E-01 3.90077E-08
 2.000E-01 4.77936E-07
 3.000E-01 3.82712E-05
 4.000E-01 1.07736E-04
 5.000E-01 2.00502E-04
 7.500E-01 4.70998E-04
 1.000E+00 2.30279E-03
 1.200E+00 4.18380E-03
 1.400E+00 7.94145E-03
 1.600E+00 1.27329E-02
 1.800E+00 1.95577E-02
 2.000E+00 3.02391E-02
 2.200E+00 4.44505E-02
 2.400E+00 6.39893E-02
 2.600E+00 9.05648E-02
 2.800E+00 1.16665E-01
 3.000E+00 1.33008E-01
 3.200E+00 1.50527E-01
 3.400E+00 7.65687E-02
 3.600E+00 5.94163E-02
 3.800E+00 4.97608E-02
 4.000E+00 3.86739E-02
 4.200E+00 1.97218E-02
 4.400E+00 1.83130E-02
 4.600E+00 1.72709E-02
 4.800E+00 1.77908E-02
 5.000E+00 1.80495E-02
 5.500E+00 2.21604E-02
 6.000E+00 2.84987E-02
 6.500E+00 3.81124E-02
 7.000E+00 5.28426E-02
 7.500E+00 7.51716E-02
 8.000E+00 1.09975E-01
 8.500E+00 1.61090E-01
 9.000E+00 2.20209E-01
 9.500E+00 2.60429E-01
 1.000E+01 2.68091E-01
 1.100E+01 2.60004E-01
 1.200E+01 2.81069E-01
 1.300E+01 3.02943E-01
 1.400E+01 2.98951E-01
 1.500E+01 2.59732E-01
 1.600E+01 2.06631E-01
 1.700E+01 1.65997E-01
 1.800E+01 1.40800E-01
 1.900E+01 1.25213E-01
 2.000E+01 1.15205E-01
 2.100E+01 1.07343E-01
 2.200E+01 1.00776E-01
 2.300E+01 9.55301E-02
 2.400E+01 8.97978E-02
 2.500E+01 8.62143E-02
 2.600E+01 8.29916E-02
 2.700E+01 7.95971E-02
 2.800E+01 7.59848E-02
 2.900E+01 7.49356E-02
 3.000E+01 7.31625E-02
