# n + 208Pb: Gamma-ray intensity - 208Pb: Level  4 --> Level  2 - gamma energy    0.510740
# E-initial  =   3.708450 E-final=   3.197710
# E-threshold= 3.72644E+00
# # energies = 67
#    E         xs
 1.000E-11 0.00000E+00
 2.530E-08 0.00000E+00
 2.000E-07 0.00000E+00
 1.000E-06 0.00000E+00
 1.000E-03 0.00000E+00
 2.000E-03 0.00000E+00
 5.000E-03 0.00000E+00
 1.000E-02 0.00000E+00
 2.000E-02 0.00000E+00
 5.000E-02 0.00000E+00
 1.000E-01 0.00000E+00
 2.000E-01 0.00000E+00
 3.000E-01 0.00000E+00
 4.000E-01 0.00000E+00
 5.000E-01 0.00000E+00
 7.500E-01 0.00000E+00
 1.000E+00 0.00000E+00
 1.200E+00 0.00000E+00
 1.400E+00 0.00000E+00
 1.600E+00 0.00000E+00
 1.800E+00 0.00000E+00
 2.000E+00 0.00000E+00
 2.200E+00 0.00000E+00
 2.400E+00 0.00000E+00
 2.600E+00 0.00000E+00
 2.800E+00 0.00000E+00
 3.000E+00 0.00000E+00
 3.200E+00 0.00000E+00
 3.400E+00 0.00000E+00
 3.600E+00 0.00000E+00
 3.800E+00 4.04373E+01
 4.000E+00 1.05786E+02
 4.200E+00 1.62347E+02
 4.400E+00 1.98437E+02
 4.600E+00 2.17324E+02
 4.800E+00 2.31372E+02
 5.000E+00 2.41912E+02
 5.500E+00 2.53628E+02
 6.000E+00 2.56377E+02
 6.500E+00 2.60828E+02
 7.000E+00 2.69947E+02
 7.500E+00 2.82692E+02
 8.000E+00 2.90234E+02
 8.500E+00 2.83108E+02
 9.000E+00 2.58402E+02
 9.500E+00 2.22478E+02
 1.000E+01 1.82742E+02
 1.100E+01 1.14692E+02
 1.200E+01 7.37441E+01
 1.300E+01 5.33052E+01
 1.400E+01 4.35584E+01
 1.500E+01 3.85501E+01
 1.600E+01 3.55117E+01
 1.700E+01 3.35374E+01
 1.800E+01 3.15518E+01
 1.900E+01 2.98672E+01
 2.000E+01 2.86042E+01
 2.100E+01 2.72860E+01
 2.200E+01 2.59846E+01
 2.300E+01 2.48583E+01
 2.400E+01 2.36962E+01
 2.500E+01 2.22902E+01
 2.600E+01 2.11544E+01
 2.700E+01 2.02556E+01
 2.800E+01 1.94926E+01
 2.900E+01 1.88104E+01
 3.000E+01 1.81458E+01
