# n + 208Pb: Gamma-ray intensity - 208Pb: Level  7 --> Level  2 - gamma energy    0.763220
# E-initial  =   3.960960 E-final=   3.197740
# E-threshold= 3.98017E+00
# # energies = 67
#    E         xs
 1.000E-11 0.00000E+00
 2.530E-08 0.00000E+00
 2.000E-07 0.00000E+00
 1.000E-06 0.00000E+00
 1.000E-03 0.00000E+00
 2.000E-03 0.00000E+00
 5.000E-03 0.00000E+00
 1.000E-02 0.00000E+00
 2.000E-02 0.00000E+00
 5.000E-02 0.00000E+00
 1.000E-01 0.00000E+00
 2.000E-01 0.00000E+00
 3.000E-01 0.00000E+00
 4.000E-01 0.00000E+00
 5.000E-01 0.00000E+00
 7.500E-01 0.00000E+00
 1.000E+00 0.00000E+00
 1.200E+00 0.00000E+00
 1.400E+00 0.00000E+00
 1.600E+00 0.00000E+00
 1.800E+00 0.00000E+00
 2.000E+00 0.00000E+00
 2.200E+00 0.00000E+00
 2.400E+00 0.00000E+00
 2.600E+00 0.00000E+00
 2.800E+00 0.00000E+00
 3.000E+00 0.00000E+00
 3.200E+00 0.00000E+00
 3.400E+00 0.00000E+00
 3.600E+00 0.00000E+00
 3.800E+00 0.00000E+00
 4.000E+00 9.94821E+00
 4.200E+00 3.18954E+01
 4.400E+00 4.11123E+01
 4.600E+00 4.51189E+01
 4.800E+00 4.61479E+01
 5.000E+00 4.59746E+01
 5.500E+00 4.45009E+01
 6.000E+00 4.31186E+01
 6.500E+00 4.23417E+01
 7.000E+00 4.24808E+01
 7.500E+00 4.34498E+01
 8.000E+00 4.35793E+01
 8.500E+00 4.11615E+01
 9.000E+00 3.60922E+01
 9.500E+00 2.99900E+01
 1.000E+01 2.39017E+01
 1.100E+01 1.43746E+01
 1.200E+01 9.15934E+00
 1.300E+01 6.64395E+00
 1.400E+01 5.43620E+00
 1.500E+01 4.81280E+00
 1.600E+01 4.42845E+00
 1.700E+01 4.19656E+00
 1.800E+01 3.94058E+00
 1.900E+01 3.73551E+00
 2.000E+01 3.56387E+00
 2.100E+01 3.40560E+00
 2.200E+01 3.27134E+00
 2.300E+01 3.13042E+00
 2.400E+01 2.97995E+00
 2.500E+01 2.85480E+00
 2.600E+01 2.71684E+00
 2.700E+01 2.61821E+00
 2.800E+01 2.51032E+00
 2.900E+01 2.43543E+00
 3.000E+01 2.33551E+00
