# n + 208Pb: Gamma-ray intensity - 208Pb: Level 11 --> Level  1 - gamma energy    1.470998
# E-initial  =   4.085520 E-final=   2.614522
# E-threshold= 4.10533E+00
# # energies =    67
#    E           xs
 1.00000E-11 0.00000E+00
 2.53000E-08 0.00000E+00
 2.00000E-07 0.00000E+00
 1.00000E-06 0.00000E+00
 1.00000E-03 0.00000E+00
 2.00000E-03 0.00000E+00
 5.00000E-03 0.00000E+00
 1.00000E-02 0.00000E+00
 2.00000E-02 0.00000E+00
 5.00000E-02 0.00000E+00
 1.00000E-01 0.00000E+00
 2.00000E-01 0.00000E+00
 3.00000E-01 0.00000E+00
 4.00000E-01 0.00000E+00
 5.00000E-01 0.00000E+00
 7.50000E-01 0.00000E+00
 1.00000E+00 0.00000E+00
 1.20000E+00 0.00000E+00
 1.40000E+00 0.00000E+00
 1.60000E+00 0.00000E+00
 1.80000E+00 0.00000E+00
 2.00000E+00 0.00000E+00
 2.20000E+00 0.00000E+00
 2.40000E+00 0.00000E+00
 2.60000E+00 0.00000E+00
 2.80000E+00 0.00000E+00
 3.00000E+00 0.00000E+00
 3.20000E+00 0.00000E+00
 3.40000E+00 0.00000E+00
 3.60000E+00 0.00000E+00
 3.80000E+00 0.00000E+00
 4.00000E+00 0.00000E+00
 4.20000E+00 1.83030E-01
 4.40000E+00 3.97974E-01
 4.60000E+00 4.80349E-01
 4.80000E+00 5.03715E-01
 5.00000E+00 5.07630E-01
 5.50000E+00 5.18083E-01
 6.00000E+00 5.13320E-01
 6.50000E+00 4.67670E-01
 7.00000E+00 4.15600E-01
 7.50000E+00 3.75779E-01
 8.00000E+00 3.15797E-01
 8.50000E+00 2.44682E-01
 9.00000E+00 1.85156E-01
 9.50000E+00 1.32307E-01
 1.00000E+01 9.51268E-02
 1.10000E+01 4.99988E-02
 1.20000E+01 3.09550E-02
 1.30000E+01 2.24441E-02
 1.40000E+01 1.88172E-02
 1.50000E+01 1.66657E-02
 1.60000E+01 1.50101E-02
 1.70000E+01 1.43452E-02
 1.80000E+01 1.30299E-02
 1.90000E+01 1.20951E-02
 2.00000E+01 1.13168E-02
 2.10000E+01 1.08129E-02
 2.20000E+01 9.87883E-03
 2.30000E+01 9.44729E-03
 2.40000E+01 9.01620E-03
 2.50000E+01 8.08651E-03
 2.60000E+01 7.69692E-03
 2.70000E+01 7.46587E-03
 2.80000E+01 7.18945E-03
 2.90000E+01 6.76372E-03
 3.00000E+01 6.46201E-03
