# n + 208Pb: Gamma-ray intensity - 209Pb: Level  1 --> Level  0 - gamma energy    0.778800
# E-initial  =   0.778800 E-final=   0.000000
# E-threshold= 0.00000E+00
# # energies = 67
#    E         xs
 1.000E-11 0.00000E+00
 2.530E-08 0.00000E+00
 2.000E-07 0.00000E+00
 1.000E-06 3.11084E-05
 1.000E-03 5.24008E-05
 2.000E-03 8.50247E-05
 5.000E-03 1.07505E-04
 1.000E-02 8.40815E-05
 2.000E-02 5.31517E-05
 5.000E-02 2.91004E-04
 1.000E-01 7.73796E-04
 2.000E-01 2.52238E-03
 3.000E-01 5.03904E-03
 4.000E-01 7.72785E-03
 5.000E-01 1.06820E-02
 7.500E-01 1.76731E-02
 1.000E+00 2.72006E-02
 1.200E+00 3.59401E-02
 1.400E+00 4.81199E-02
 1.600E+00 6.29531E-02
 1.800E+00 8.18865E-02
 2.000E+00 1.06147E-01
 2.200E+00 1.36692E-01
 2.400E+00 1.74851E-01
 2.600E+00 2.22465E-01
 2.800E+00 2.28522E-01
 3.000E+00 2.25984E-01
 3.200E+00 2.33935E-01
 3.400E+00 1.26311E-01
 3.600E+00 1.12278E-01
 3.800E+00 1.00474E-01
 4.000E+00 8.84081E-02
 4.200E+00 6.99910E-02
 4.400E+00 7.04828E-02
 4.600E+00 6.94465E-02
 4.800E+00 6.89054E-02
 5.000E+00 7.29670E-02
 5.500E+00 8.21882E-02
 6.000E+00 9.85084E-02
 6.500E+00 1.28685E-01
 7.000E+00 1.82070E-01
 7.500E+00 2.66219E-01
 8.000E+00 3.66288E-01
 8.500E+00 4.40567E-01
 9.000E+00 4.71799E-01
 9.500E+00 4.58405E-01
 1.000E+01 4.47754E-01
 1.100E+01 3.89113E-01
 1.200E+01 3.61053E-01
 1.300E+01 3.19554E-01
 1.400E+01 2.66608E-01
 1.500E+01 2.10995E-01
 1.600E+01 1.65875E-01
 1.700E+01 1.37131E-01
 1.800E+01 1.19182E-01
 1.900E+01 1.05179E-01
 2.000E+01 9.59319E-02
 2.100E+01 8.79792E-02
 2.200E+01 8.21867E-02
 2.300E+01 7.70691E-02
 2.400E+01 7.27293E-02
 2.500E+01 6.95480E-02
 2.600E+01 6.63434E-02
 2.700E+01 6.36565E-02
 2.800E+01 6.12218E-02
 2.900E+01 5.95559E-02
 3.000E+01 5.77535E-02
