# n + 208Pb: Gamma-ray intensity - 209Pb: Level  8 --> Level  0 - gamma energy    2.463000
# E-initial  =   2.463000 E-final=   0.000000
# E-threshold= 0.00000E+00
# # energies = 67
#    E         xs
 1.000E-11 0.00000E+00
 2.530E-08 0.00000E+00
 2.000E-07 0.00000E+00
 1.000E-06 7.43001E-02
 1.000E-03 1.85249E-02
 2.000E-03 1.57234E-02
 5.000E-03 1.60722E-02
 1.000E-02 1.29834E-02
 2.000E-02 8.41978E-03
 5.000E-02 4.76372E-03
 1.000E-01 3.62700E-03
 2.000E-01 3.55612E-03
 3.000E-01 3.69307E-03
 4.000E-01 3.77725E-03
 5.000E-01 3.89119E-03
 7.500E-01 4.38687E-03
 1.000E+00 5.11322E-03
 1.200E+00 5.84234E-03
 1.400E+00 6.75660E-03
 1.600E+00 7.74022E-03
 1.800E+00 8.95793E-03
 2.000E+00 1.03882E-02
 2.200E+00 1.20466E-02
 2.400E+00 1.40018E-02
 2.600E+00 1.69409E-02
 2.800E+00 1.28210E-02
 3.000E+00 1.23826E-02
 3.200E+00 1.32605E-02
 3.400E+00 1.26979E-02
 3.600E+00 1.29580E-02
 3.800E+00 1.32085E-02
 4.000E+00 1.38602E-02
 4.200E+00 1.27206E-02
 4.400E+00 9.94859E-03
 4.600E+00 7.92612E-03
 4.800E+00 6.41609E-03
 5.000E+00 5.13868E-03
 5.500E+00 3.56661E-03
 6.000E+00 2.63954E-03
 6.500E+00 2.29082E-03
 7.000E+00 2.13696E-03
 7.500E+00 2.39696E-03
 8.000E+00 3.04228E-03
 8.500E+00 4.18518E-03
 9.000E+00 6.40659E-03
 9.500E+00 1.02429E-02
 1.000E+01 1.58481E-02
 1.100E+01 2.45006E-02
 1.200E+01 1.91307E-02
 1.300E+01 1.17433E-02
 1.400E+01 8.51928E-03
 1.500E+01 6.87579E-03
 1.600E+01 5.75177E-03
 1.700E+01 4.85617E-03
 1.800E+01 4.02321E-03
 1.900E+01 3.67955E-03
 2.000E+01 3.42247E-03
 2.100E+01 3.30291E-03
 2.200E+01 3.14517E-03
 2.300E+01 3.11813E-03
 2.400E+01 3.00872E-03
 2.500E+01 3.00650E-03
 2.600E+01 3.02696E-03
 2.700E+01 2.94313E-03
 2.800E+01 2.77790E-03
 2.900E+01 2.82433E-03
 3.000E+01 2.88693E-03
