# n + 208Pb: Gamma-ray intensity - 208Pb: Level 12 --> Level  2 - gamma energy    0.927640
# E-initial  =   4.125350 E-final=   3.197710
# E-threshold= 4.14536E+00
# # energies = 67
#    E         xs
 1.000E-11 0.00000E+00
 2.530E-08 0.00000E+00
 2.000E-07 0.00000E+00
 1.000E-06 0.00000E+00
 1.000E-03 0.00000E+00
 2.000E-03 0.00000E+00
 5.000E-03 0.00000E+00
 1.000E-02 0.00000E+00
 2.000E-02 0.00000E+00
 5.000E-02 0.00000E+00
 1.000E-01 0.00000E+00
 2.000E-01 0.00000E+00
 3.000E-01 0.00000E+00
 4.000E-01 0.00000E+00
 5.000E-01 0.00000E+00
 7.500E-01 0.00000E+00
 1.000E+00 0.00000E+00
 1.200E+00 0.00000E+00
 1.400E+00 0.00000E+00
 1.600E+00 0.00000E+00
 1.800E+00 0.00000E+00
 2.000E+00 0.00000E+00
 2.200E+00 0.00000E+00
 2.400E+00 0.00000E+00
 2.600E+00 0.00000E+00
 2.800E+00 0.00000E+00
 3.000E+00 0.00000E+00
 3.200E+00 0.00000E+00
 3.400E+00 0.00000E+00
 3.600E+00 0.00000E+00
 3.800E+00 0.00000E+00
 4.000E+00 0.00000E+00
 4.200E+00 1.47379E+01
 4.400E+00 3.32276E+01
 4.600E+00 4.36623E+01
 4.800E+00 4.92514E+01
 5.000E+00 5.12441E+01
 5.500E+00 5.06134E+01
 6.000E+00 4.89140E+01
 6.500E+00 4.76208E+01
 7.000E+00 4.70838E+01
 7.500E+00 4.74249E+01
 8.000E+00 4.71163E+01
 8.500E+00 4.44395E+01
 9.000E+00 3.93912E+01
 9.500E+00 3.33537E+01
 1.000E+01 2.74245E+01
 1.100E+01 1.82725E+01
 1.200E+01 1.33499E+01
 1.300E+01 1.09419E+01
 1.400E+01 9.70739E+00
 1.500E+01 8.94763E+00
 1.600E+01 8.39577E+00
 1.700E+01 7.98333E+00
 1.800E+01 7.60736E+00
 1.900E+01 7.28438E+00
 2.000E+01 7.00211E+00
 2.100E+01 6.72114E+00
 2.200E+01 6.44405E+00
 2.300E+01 6.18202E+00
 2.400E+01 5.93103E+00
 2.500E+01 5.68147E+00
 2.600E+01 5.45300E+00
 2.700E+01 5.27582E+00
 2.800E+01 5.10926E+00
 2.900E+01 4.95293E+00
 3.000E+01 4.79807E+00
