# n + 208Pb: Gamma-ray intensity - 209Pb: Level  7 --> Level  3 - gamma energy    0.856910
# E-initial  =   2.424000 E-final=   1.567090
# E-threshold= 0.00000E+00
# # energies =    67
#    E           xs
 1.00000E-11 0.00000E+00
 2.53000E-08 0.00000E+00
 2.00000E-07 0.00000E+00
 1.00000E-06 6.06451E-03
 1.00000E-03 5.93245E-03
 2.00000E-03 8.24569E-03
 5.00000E-03 1.01771E-02
 1.00000E-02 7.97094E-03
 2.00000E-02 5.00815E-03
 5.00000E-02 2.67587E-03
 1.00000E-01 1.96574E-03
 2.00000E-01 2.04043E-03
 3.00000E-01 2.19019E-03
 4.00000E-01 2.27857E-03
 5.00000E-01 2.37211E-03
 7.50000E-01 2.71684E-03
 1.00000E+00 3.23270E-03
 1.20000E+00 3.78158E-03
 1.40000E+00 4.44297E-03
 1.60000E+00 5.26486E-03
 1.80000E+00 6.25459E-03
 2.00000E+00 7.43596E-03
 2.20000E+00 8.90379E-03
 2.40000E+00 1.05909E-02
 2.60000E+00 1.25846E-02
 2.80000E+00 8.79981E-03
 3.00000E+00 8.25955E-03
 3.20000E+00 8.56390E-03
 3.40000E+00 7.99591E-03
 3.60000E+00 7.79326E-03
 3.80000E+00 7.58479E-03
 4.00000E+00 7.55307E-03
 4.20000E+00 6.72341E-03
 4.40000E+00 5.51872E-03
 4.60000E+00 4.76121E-03
 4.80000E+00 4.61138E-03
 5.00000E+00 4.26073E-03
 5.50000E+00 3.45738E-03
 6.00000E+00 3.02025E-03
 6.50000E+00 2.90472E-03
 7.00000E+00 3.13793E-03
 7.50000E+00 3.66809E-03
 8.00000E+00 4.78519E-03
 8.50000E+00 6.75858E-03
 9.00000E+00 9.99706E-03
 9.50000E+00 1.50060E-02
 1.00000E+01 2.08398E-02
 1.10000E+01 2.46344E-02
 1.20000E+01 1.78092E-02
 1.30000E+01 1.19565E-02
 1.40000E+01 9.02774E-03
 1.50000E+01 7.21400E-03
 1.60000E+01 6.02029E-03
 1.70000E+01 5.85872E-03
 1.80000E+01 5.42384E-03
 1.90000E+01 5.22513E-03
 2.00000E+01 4.95405E-03
 2.10000E+01 4.44102E-03
 2.20000E+01 3.89860E-03
 2.30000E+01 3.69572E-03
 2.40000E+01 3.17426E-03
 2.50000E+01 2.99545E-03
 2.60000E+01 2.70518E-03
 2.70000E+01 2.58721E-03
 2.80000E+01 2.50545E-03
 2.90000E+01 2.35313E-03
 3.00000E+01 2.28143E-03
