# n + 208Pb: Gamma-ray intensity - 208Pb: Level 17 --> Level  3 - gamma energy    0.705300
# E-initial  =   4.180410 E-final=   3.475110
# E-threshold= 4.20068E+00
# # energies = 67
#    E         xs
 1.000E-11 0.00000E+00
 2.530E-08 0.00000E+00
 2.000E-07 0.00000E+00
 1.000E-06 0.00000E+00
 1.000E-03 0.00000E+00
 2.000E-03 0.00000E+00
 5.000E-03 0.00000E+00
 1.000E-02 0.00000E+00
 2.000E-02 0.00000E+00
 5.000E-02 0.00000E+00
 1.000E-01 0.00000E+00
 2.000E-01 0.00000E+00
 3.000E-01 0.00000E+00
 4.000E-01 0.00000E+00
 5.000E-01 0.00000E+00
 7.500E-01 0.00000E+00
 1.000E+00 0.00000E+00
 1.200E+00 0.00000E+00
 1.400E+00 0.00000E+00
 1.600E+00 0.00000E+00
 1.800E+00 0.00000E+00
 2.000E+00 0.00000E+00
 2.200E+00 0.00000E+00
 2.400E+00 0.00000E+00
 2.600E+00 0.00000E+00
 2.800E+00 0.00000E+00
 3.000E+00 0.00000E+00
 3.200E+00 0.00000E+00
 3.400E+00 0.00000E+00
 3.600E+00 0.00000E+00
 3.800E+00 0.00000E+00
 4.000E+00 0.00000E+00
 4.200E+00 0.00000E+00
 4.400E+00 3.52943E+00
 4.600E+00 4.97929E+00
 4.800E+00 5.68717E+00
 5.000E+00 5.91240E+00
 5.500E+00 5.67116E+00
 6.000E+00 5.32525E+00
 6.500E+00 5.11175E+00
 7.000E+00 5.01248E+00
 7.500E+00 5.03777E+00
 8.000E+00 5.00054E+00
 8.500E+00 4.69132E+00
 9.000E+00 4.08965E+00
 9.500E+00 3.38219E+00
 1.000E+01 2.68537E+00
 1.100E+01 1.60954E+00
 1.200E+01 1.02481E+00
 1.300E+01 7.41783E-01
 1.400E+01 6.05553E-01
 1.500E+01 5.35763E-01
 1.600E+01 4.93697E-01
 1.700E+01 4.69807E-01
 1.800E+01 4.42902E-01
 1.900E+01 4.21683E-01
 2.000E+01 4.04108E-01
 2.100E+01 3.87916E-01
 2.200E+01 3.75880E-01
 2.300E+01 3.60937E-01
 2.400E+01 3.45178E-01
 2.500E+01 3.32813E-01
 2.600E+01 3.17735E-01
 2.700E+01 3.07216E-01
 2.800E+01 2.94243E-01
 2.900E+01 2.86967E-01
 3.000E+01 2.75704E-01
