# n + 208Pb: Gamma-ray intensity - 209Pb: Level  2 --> Level  0 - gamma energy    1.423000
# E-initial  =   1.423000 E-final=   0.000000
# E-threshold= 0.00000E+00
# # energies = 66
#    E         xs
 1.000E-11 0.00000E+00
 2.530E-08 0.00000E+00
 1.000E-06 0.00000E+00
 1.000E-03 0.00000E+00
 2.000E-03 0.00000E+00
 5.000E-03 0.00000E+00
 1.000E-02 0.00000E+00
 2.000E-02 0.00000E+00
 5.000E-02 0.00000E+00
 1.000E-01 0.00000E+00
 2.000E-01 0.00000E+00
 3.000E-01 0.00000E+00
 4.000E-01 0.00000E+00
 5.000E-01 0.00000E+00
 7.500E-01 0.00000E+00
 1.000E+00 2.28350E-03
 1.200E+00 3.63603E-03
 1.400E+00 6.33994E-03
 1.600E+00 9.70079E-03
 1.800E+00 1.43170E-02
 2.000E+00 2.15191E-02
 2.200E+00 3.04186E-02
 2.400E+00 4.20647E-02
 2.600E+00 5.71388E-02
 2.800E+00 7.03197E-02
 3.000E+00 7.63083E-02
 3.200E+00 8.16391E-02
 3.400E+00 3.75460E-02
 3.600E+00 2.58460E-02
 3.800E+00 1.99748E-02
 4.000E+00 1.44620E-02
 4.200E+00 6.80650E-03
 4.400E+00 7.52047E-03
 4.600E+00 7.40520E-03
 4.800E+00 8.11229E-03
 5.000E+00 8.05002E-03
 5.500E+00 1.05742E-02
 6.000E+00 1.46659E-02
 6.500E+00 2.13235E-02
 7.000E+00 3.23758E-02
 7.500E+00 5.09704E-02
 8.000E+00 8.24850E-02
 8.500E+00 1.31965E-01
 9.000E+00 1.92000E-01
 9.500E+00 2.33721E-01
 1.000E+01 2.39913E-01
 1.100E+01 2.24957E-01
 1.200E+01 2.39741E-01
 1.300E+01 2.58651E-01
 1.400E+01 2.57852E-01
 1.500E+01 2.28049E-01
 1.600E+01 1.82111E-01
 1.700E+01 1.46179E-01
 1.800E+01 1.23841E-01
 1.900E+01 1.09520E-01
 2.000E+01 1.00650E-01
 2.100E+01 9.53038E-02
 2.200E+01 9.10625E-02
 2.300E+01 8.69781E-02
 2.400E+01 8.24889E-02
 2.500E+01 8.07299E-02
 2.600E+01 7.79576E-02
 2.700E+01 7.43229E-02
 2.800E+01 7.20418E-02
 2.900E+01 7.07148E-02
 3.000E+01 6.88929E-02
