# n + 208Pb: Gamma-ray intensity - 208Pb: Level 11 --> Level  1 - gamma energy    1.435950
# E-initial  =   4.050500 E-final=   2.614550
# E-threshold= 4.07014E+00
# # energies = 66
#    E         xs
 1.000E-11 0.00000E+00
 2.530E-08 0.00000E+00
 1.000E-06 0.00000E+00
 1.000E-03 0.00000E+00
 2.000E-03 0.00000E+00
 5.000E-03 0.00000E+00
 1.000E-02 0.00000E+00
 2.000E-02 0.00000E+00
 5.000E-02 0.00000E+00
 1.000E-01 0.00000E+00
 2.000E-01 0.00000E+00
 3.000E-01 0.00000E+00
 4.000E-01 0.00000E+00
 5.000E-01 0.00000E+00
 7.500E-01 0.00000E+00
 1.000E+00 0.00000E+00
 1.200E+00 0.00000E+00
 1.400E+00 0.00000E+00
 1.600E+00 0.00000E+00
 1.800E+00 0.00000E+00
 2.000E+00 0.00000E+00
 2.200E+00 0.00000E+00
 2.400E+00 0.00000E+00
 2.600E+00 0.00000E+00
 2.800E+00 0.00000E+00
 3.000E+00 0.00000E+00
 3.200E+00 0.00000E+00
 3.400E+00 0.00000E+00
 3.600E+00 0.00000E+00
 3.800E+00 0.00000E+00
 4.000E+00 0.00000E+00
 4.200E+00 5.89453E+01
 4.400E+00 8.78629E+01
 4.600E+00 9.56202E+01
 4.800E+00 9.29981E+01
 5.000E+00 8.67078E+01
 5.500E+00 7.17506E+01
 6.000E+00 6.28396E+01
 6.500E+00 5.74864E+01
 7.000E+00 5.42357E+01
 7.500E+00 5.22226E+01
 8.000E+00 4.64747E+01
 8.500E+00 3.78119E+01
 9.000E+00 2.91963E+01
 9.500E+00 2.20167E+01
 1.000E+01 1.60737E+01
 1.100E+01 9.05430E+00
 1.200E+01 6.14341E+00
 1.300E+01 4.82099E+00
 1.400E+01 4.22592E+00
 1.500E+01 3.85183E+00
 1.600E+01 3.59702E+00
 1.700E+01 3.44153E+00
 1.800E+01 3.28414E+00
 1.900E+01 3.09789E+00
 2.000E+01 3.00102E+00
 2.100E+01 2.84741E+00
 2.200E+01 2.75093E+00
 2.300E+01 2.59719E+00
 2.400E+01 2.49455E+00
 2.500E+01 2.42197E+00
 2.600E+01 2.28090E+00
 2.700E+01 2.20320E+00
 2.800E+01 2.14036E+00
 2.900E+01 2.07880E+00
 3.000E+01 1.96012E+00
