# n + 208Pb: Gamma-ray intensity - 207Pb: Level  2 --> Level  1 - gamma energy    0.328097
# E-initial  =   0.897800 E-final=   0.569703
# E-threshold= 1.90215E+00
# # energies = 66
#    E         xs
 1.000E-11 0.00000E+00
 2.530E-08 0.00000E+00
 1.000E-06 0.00000E+00
 1.000E-03 0.00000E+00
 2.000E-03 0.00000E+00
 5.000E-03 0.00000E+00
 1.000E-02 0.00000E+00
 2.000E-02 0.00000E+00
 5.000E-02 0.00000E+00
 1.000E-01 0.00000E+00
 2.000E-01 0.00000E+00
 3.000E-01 0.00000E+00
 4.000E-01 0.00000E+00
 5.000E-01 0.00000E+00
 7.500E-01 0.00000E+00
 1.000E+00 0.00000E+00
 1.200E+00 0.00000E+00
 1.400E+00 0.00000E+00
 1.600E+00 0.00000E+00
 1.800E+00 0.00000E+00
 2.000E+00 0.00000E+00
 2.200E+00 0.00000E+00
 2.400E+00 0.00000E+00
 2.600E+00 0.00000E+00
 2.800E+00 0.00000E+00
 3.000E+00 0.00000E+00
 3.200E+00 0.00000E+00
 3.400E+00 0.00000E+00
 3.600E+00 0.00000E+00
 3.800E+00 0.00000E+00
 4.000E+00 0.00000E+00
 4.200E+00 0.00000E+00
 4.400E+00 0.00000E+00
 4.600E+00 0.00000E+00
 4.800E+00 0.00000E+00
 5.000E+00 0.00000E+00
 5.500E+00 0.00000E+00
 6.000E+00 0.00000E+00
 6.500E+00 0.00000E+00
 7.000E+00 0.00000E+00
 7.500E+00 0.00000E+00
 8.000E+00 0.00000E+00
 8.500E+00 1.30324E-02
 9.000E+00 2.49536E-01
 9.500E+00 7.18237E-01
 1.000E+01 1.22938E+00
 1.100E+01 2.07383E+00
 1.200E+01 2.42135E+00
 1.300E+01 2.32949E+00
 1.400E+01 2.07564E+00
 1.500E+01 1.82736E+00
 1.600E+01 1.53013E+00
 1.700E+01 1.19950E+00
 1.800E+01 8.95112E-01
 1.900E+01 6.73382E-01
 2.000E+01 5.25149E-01
 2.100E+01 4.25829E-01
 2.200E+01 3.66194E-01
 2.300E+01 3.26893E-01
 2.400E+01 2.97157E-01
 2.500E+01 2.76598E-01
 2.600E+01 2.59184E-01
 2.700E+01 2.41617E-01
 2.800E+01 2.29485E-01
 2.900E+01 2.23082E-01
 3.000E+01 2.13124E-01
