# n + 208Pb: Gamma-ray intensity - 207Pb: Level  2 --> Level  1 - gamma energy    0.328097
# E-initial  =   0.897800 E-final=   0.569703
# E-threshold= 8.30576E+00
# # energies = 67
#    E         xs
 1.000E-11 0.00000E+00
 2.530E-08 0.00000E+00
 2.000E-07 0.00000E+00
 1.000E-06 0.00000E+00
 1.000E-03 0.00000E+00
 2.000E-03 0.00000E+00
 5.000E-03 0.00000E+00
 1.000E-02 0.00000E+00
 2.000E-02 0.00000E+00
 5.000E-02 0.00000E+00
 1.000E-01 0.00000E+00
 2.000E-01 0.00000E+00
 3.000E-01 0.00000E+00
 4.000E-01 0.00000E+00
 5.000E-01 0.00000E+00
 7.500E-01 0.00000E+00
 1.000E+00 0.00000E+00
 1.200E+00 0.00000E+00
 1.400E+00 0.00000E+00
 1.600E+00 0.00000E+00
 1.800E+00 0.00000E+00
 2.000E+00 0.00000E+00
 2.200E+00 0.00000E+00
 2.400E+00 0.00000E+00
 2.600E+00 0.00000E+00
 2.800E+00 0.00000E+00
 3.000E+00 0.00000E+00
 3.200E+00 0.00000E+00
 3.400E+00 0.00000E+00
 3.600E+00 0.00000E+00
 3.800E+00 0.00000E+00
 4.000E+00 0.00000E+00
 4.200E+00 0.00000E+00
 4.400E+00 0.00000E+00
 4.600E+00 0.00000E+00
 4.800E+00 0.00000E+00
 5.000E+00 0.00000E+00
 5.500E+00 0.00000E+00
 6.000E+00 0.00000E+00
 6.500E+00 0.00000E+00
 7.000E+00 0.00000E+00
 7.500E+00 0.00000E+00
 8.000E+00 0.00000E+00
 8.500E+00 8.96038E-03
 9.000E+00 1.81076E-01
 9.500E+00 5.47160E-01
 1.000E+01 9.77519E-01
 1.100E+01 1.77212E+00
 1.200E+01 2.19300E+00
 1.300E+01 2.22278E+00
 1.400E+01 2.06404E+00
 1.500E+01 1.86858E+00
 1.600E+01 1.62264E+00
 1.700E+01 1.32884E+00
 1.800E+01 1.04747E+00
 1.900E+01 8.26321E-01
 2.000E+01 6.62047E-01
 2.100E+01 5.41332E-01
 2.200E+01 4.58099E-01
 2.300E+01 4.01039E-01
 2.400E+01 3.59141E-01
 2.500E+01 3.29325E-01
 2.600E+01 3.07365E-01
 2.700E+01 2.87378E-01
 2.800E+01 2.75226E-01
 2.900E+01 2.61032E-01
 3.000E+01 2.49443E-01
