# n + 208Pb: Gamma-ray intensity - 209Pb: Level  8 --> Level  0 - gamma energy    2.463000
# E-initial  =   2.463000 E-final=   0.000000
# E-threshold= 0.00000E+00
# # energies =    67
#    E           xs
 1.00000E-11 0.00000E+00
 2.53000E-08 0.00000E+00
 2.00000E-07 0.00000E+00
 1.00000E-06 1.45468E-01
 1.00000E-03 2.95704E-02
 2.00000E-03 3.08991E-02
 5.00000E-03 3.03634E-02
 1.00000E-02 2.20787E-02
 2.00000E-02 1.34100E-02
 5.00000E-02 6.66176E-03
 1.00000E-01 4.35199E-03
 2.00000E-01 3.49034E-03
 3.00000E-01 3.22706E-03
 4.00000E-01 3.12381E-03
 5.00000E-01 3.12460E-03
 7.50000E-01 3.41162E-03
 1.00000E+00 3.99055E-03
 1.20000E+00 4.64670E-03
 1.40000E+00 5.43350E-03
 1.60000E+00 6.43012E-03
 1.80000E+00 7.63067E-03
 2.00000E+00 9.06142E-03
 2.20000E+00 1.08873E-02
 2.40000E+00 1.29305E-02
 2.60000E+00 1.53076E-02
 2.80000E+00 1.17705E-02
 3.00000E+00 1.13439E-02
 3.20000E+00 1.19501E-02
 3.40000E+00 1.23184E-02
 3.60000E+00 1.27625E-02
 3.80000E+00 1.28523E-02
 4.00000E+00 1.32418E-02
 4.20000E+00 1.20122E-02
 4.40000E+00 9.69457E-03
 4.60000E+00 8.28315E-03
 4.80000E+00 7.75952E-03
 5.00000E+00 6.97521E-03
 5.50000E+00 5.20798E-03
 6.00000E+00 4.18858E-03
 6.50000E+00 3.72559E-03
 7.00000E+00 3.71917E-03
 7.50000E+00 3.91070E-03
 8.00000E+00 4.67666E-03
 8.50000E+00 6.07756E-03
 9.00000E+00 8.26840E-03
 9.50000E+00 1.21081E-02
 1.00000E+01 1.75920E-02
 1.10000E+01 2.51063E-02
 1.20000E+01 1.92447E-02
 1.30000E+01 1.29163E-02
 1.40000E+01 9.28865E-03
 1.50000E+01 7.42300E-03
 1.60000E+01 6.26061E-03
 1.70000E+01 6.48468E-03
 1.80000E+01 6.11284E-03
 1.90000E+01 6.02964E-03
 2.00000E+01 5.68995E-03
 2.10000E+01 5.06700E-03
 2.20000E+01 4.37235E-03
 2.30000E+01 4.14923E-03
 2.40000E+01 3.39929E-03
 2.50000E+01 3.18732E-03
 2.60000E+01 2.79712E-03
 2.70000E+01 2.67184E-03
 2.80000E+01 2.56706E-03
 2.90000E+01 2.34080E-03
 3.00000E+01 2.26811E-03
