# n + 208Pb: Gamma-ray intensity - 208Pb: Level  6 --> Level  2 - gamma energy    0.748867
# E-initial  =   3.946578 E-final=   3.197711
# E-threshold= 3.96572E+00
# # energies =    67
#    E           xs
 1.00000E-11 0.00000E+00
 2.53000E-08 0.00000E+00
 2.00000E-07 0.00000E+00
 1.00000E-06 0.00000E+00
 1.00000E-03 0.00000E+00
 2.00000E-03 0.00000E+00
 5.00000E-03 0.00000E+00
 1.00000E-02 0.00000E+00
 2.00000E-02 0.00000E+00
 5.00000E-02 0.00000E+00
 1.00000E-01 0.00000E+00
 2.00000E-01 0.00000E+00
 3.00000E-01 0.00000E+00
 4.00000E-01 0.00000E+00
 5.00000E-01 0.00000E+00
 7.50000E-01 0.00000E+00
 1.00000E+00 0.00000E+00
 1.20000E+00 0.00000E+00
 1.40000E+00 0.00000E+00
 1.60000E+00 0.00000E+00
 1.80000E+00 0.00000E+00
 2.00000E+00 0.00000E+00
 2.20000E+00 0.00000E+00
 2.40000E+00 0.00000E+00
 2.60000E+00 0.00000E+00
 2.80000E+00 0.00000E+00
 3.00000E+00 0.00000E+00
 3.20000E+00 0.00000E+00
 3.40000E+00 0.00000E+00
 3.60000E+00 0.00000E+00
 3.80000E+00 0.00000E+00
 4.00000E+00 1.59023E+01
 4.20000E+00 4.54687E+01
 4.40000E+00 5.89534E+01
 4.60000E+00 6.28391E+01
 4.80000E+00 6.26674E+01
 5.00000E+00 6.05498E+01
 5.50000E+00 5.49274E+01
 6.00000E+00 5.04127E+01
 6.50000E+00 4.69004E+01
 7.00000E+00 4.47139E+01
 7.50000E+00 4.35235E+01
 8.00000E+00 4.03745E+01
 8.50000E+00 3.43573E+01
 9.00000E+00 2.74340E+01
 9.50000E+00 2.06138E+01
 1.00000E+01 1.49856E+01
 1.10000E+01 7.63202E+00
 1.20000E+01 4.35794E+00
 1.30000E+01 2.95607E+00
 1.40000E+01 2.35654E+00
 1.50000E+01 2.04964E+00
 1.60000E+01 1.84346E+00
 1.70000E+01 1.72655E+00
 1.80000E+01 1.58144E+00
 1.90000E+01 1.46651E+00
 2.00000E+01 1.37064E+00
 2.10000E+01 1.29071E+00
 2.20000E+01 1.20335E+00
 2.30000E+01 1.13426E+00
 2.40000E+01 1.06570E+00
 2.50000E+01 9.76449E-01
 2.60000E+01 9.15369E-01
 2.70000E+01 8.73920E-01
 2.80000E+01 8.30498E-01
 2.90000E+01 7.93744E-01
 3.00000E+01 7.58161E-01
