# n + 208Pb: Gamma-ray intensity - 209Pb: Level  2 --> Level  0 - gamma energy    1.423000
# E-initial  =   1.423000 E-final=   0.000000
# E-threshold= 0.00000E+00
# # energies = 67
#    E         xs
 1.000E-11 0.00000E+00
 2.530E-08 0.00000E+00
 2.000E-07 0.00000E+00
 1.000E-06 0.00000E+00
 1.000E-03 0.00000E+00
 2.000E-03 0.00000E+00
 5.000E-03 0.00000E+00
 1.000E-02 0.00000E+00
 2.000E-02 0.00000E+00
 5.000E-02 9.28459E-10
 1.000E-01 2.54866E-08
 2.000E-01 7.61766E-07
 3.000E-01 6.36483E-05
 4.000E-01 1.79156E-04
 5.000E-01 3.33315E-04
 7.500E-01 7.78636E-04
 1.000E+00 2.80794E-03
 1.200E+00 4.85132E-03
 1.400E+00 8.91311E-03
 1.600E+00 1.40818E-02
 1.800E+00 2.14669E-02
 2.000E+00 3.29517E-02
 2.200E+00 4.83211E-02
 2.400E+00 6.94876E-02
 2.600E+00 9.83076E-02
 2.800E+00 1.26637E-01
 3.000E+00 1.45224E-01
 3.200E+00 1.64706E-01
 3.400E+00 8.40848E-02
 3.600E+00 6.64678E-02
 3.800E+00 5.60692E-02
 4.000E+00 4.39999E-02
 4.200E+00 2.38867E-02
 4.400E+00 3.26481E-02
 4.600E+00 3.21854E-02
 4.800E+00 3.39983E-02
 5.000E+00 3.40363E-02
 5.500E+00 4.09098E-02
 6.000E+00 5.07417E-02
 6.500E+00 6.47162E-02
 7.000E+00 8.42755E-02
 7.500E+00 1.10117E-01
 8.000E+00 1.42209E-01
 8.500E+00 1.77710E-01
 9.000E+00 2.10283E-01
 9.500E+00 2.34068E-01
 1.000E+01 2.49284E-01
 1.100E+01 2.73509E-01
 1.200E+01 3.02610E-01
 1.300E+01 3.27036E-01
 1.400E+01 3.28441E-01
 1.500E+01 2.95651E-01
 1.600E+01 2.49663E-01
 1.700E+01 2.13613E-01
 1.800E+01 1.85586E-01
 1.900E+01 1.68040E-01
 2.000E+01 1.54462E-01
 2.100E+01 1.46970E-01
 2.200E+01 1.39395E-01
 2.300E+01 1.33401E-01
 2.400E+01 1.27374E-01
 2.500E+01 1.21287E-01
 2.600E+01 1.15783E-01
 2.700E+01 1.09737E-01
 2.800E+01 1.02755E-01
 2.900E+01 9.86850E-02
 3.000E+01 9.41277E-02
