# n + 208Pb: Gamma-ray intensity - 208Pb: Level 20 --> Level  7 - gamma energy    0.362784
# E-initial  =   4.323946 E-final=   3.961162
# E-threshold= 4.34492E+00
# # energies =    67
#    E           xs
 1.00000E-11 0.00000E+00
 2.53000E-08 0.00000E+00
 2.00000E-07 0.00000E+00
 1.00000E-06 0.00000E+00
 1.00000E-03 0.00000E+00
 2.00000E-03 0.00000E+00
 5.00000E-03 0.00000E+00
 1.00000E-02 0.00000E+00
 2.00000E-02 0.00000E+00
 5.00000E-02 0.00000E+00
 1.00000E-01 0.00000E+00
 2.00000E-01 0.00000E+00
 3.00000E-01 0.00000E+00
 4.00000E-01 0.00000E+00
 5.00000E-01 0.00000E+00
 7.50000E-01 0.00000E+00
 1.00000E+00 0.00000E+00
 1.20000E+00 0.00000E+00
 1.40000E+00 0.00000E+00
 1.60000E+00 0.00000E+00
 1.80000E+00 0.00000E+00
 2.00000E+00 0.00000E+00
 2.20000E+00 0.00000E+00
 2.40000E+00 0.00000E+00
 2.60000E+00 0.00000E+00
 2.80000E+00 0.00000E+00
 3.00000E+00 0.00000E+00
 3.20000E+00 0.00000E+00
 3.40000E+00 0.00000E+00
 3.60000E+00 0.00000E+00
 3.80000E+00 0.00000E+00
 4.00000E+00 0.00000E+00
 4.20000E+00 0.00000E+00
 4.40000E+00 1.48793E+00
 4.60000E+00 5.78429E+00
 4.80000E+00 8.26679E+00
 5.00000E+00 9.60107E+00
 5.50000E+00 1.17335E+01
 6.00000E+00 1.35010E+01
 6.50000E+00 1.39927E+01
 7.00000E+00 1.36002E+01
 7.50000E+00 1.31243E+01
 8.00000E+00 1.21346E+01
 8.50000E+00 1.04337E+01
 9.00000E+00 8.54486E+00
 9.50000E+00 6.70730E+00
 1.00000E+01 5.20273E+00
 1.10000E+01 3.24501E+00
 1.20000E+01 2.37599E+00
 1.30000E+01 1.99967E+00
 1.40000E+01 1.81875E+00
 1.50000E+01 1.69872E+00
 1.60000E+01 1.59823E+00
 1.70000E+01 1.52322E+00
 1.80000E+01 1.44053E+00
 1.90000E+01 1.36932E+00
 2.00000E+01 1.30343E+00
 2.10000E+01 1.24611E+00
 2.20000E+01 1.18842E+00
 2.30000E+01 1.14100E+00
 2.40000E+01 1.09756E+00
 2.50000E+01 1.04835E+00
 2.60000E+01 1.00906E+00
 2.70000E+01 9.77949E-01
 2.80000E+01 9.47393E-01
 2.90000E+01 9.18508E-01
 3.00000E+01 8.91418E-01
