# n + 208Pb: Gamma-ray intensity - 208Pb: Level 28 --> Level  3 - gamma energy    1.223245
# E-initial  =   4.698323 E-final=   3.475078
# E-threshold= 4.72111E+00
# # energies =    67
#    E           xs
 1.00000E-11 0.00000E+00
 2.53000E-08 0.00000E+00
 2.00000E-07 0.00000E+00
 1.00000E-06 0.00000E+00
 1.00000E-03 0.00000E+00
 2.00000E-03 0.00000E+00
 5.00000E-03 0.00000E+00
 1.00000E-02 0.00000E+00
 2.00000E-02 0.00000E+00
 5.00000E-02 0.00000E+00
 1.00000E-01 0.00000E+00
 2.00000E-01 0.00000E+00
 3.00000E-01 0.00000E+00
 4.00000E-01 0.00000E+00
 5.00000E-01 0.00000E+00
 7.50000E-01 0.00000E+00
 1.00000E+00 0.00000E+00
 1.20000E+00 0.00000E+00
 1.40000E+00 0.00000E+00
 1.60000E+00 0.00000E+00
 1.80000E+00 0.00000E+00
 2.00000E+00 0.00000E+00
 2.20000E+00 0.00000E+00
 2.40000E+00 0.00000E+00
 2.60000E+00 0.00000E+00
 2.80000E+00 0.00000E+00
 3.00000E+00 0.00000E+00
 3.20000E+00 0.00000E+00
 3.40000E+00 0.00000E+00
 3.60000E+00 0.00000E+00
 3.80000E+00 0.00000E+00
 4.00000E+00 0.00000E+00
 4.20000E+00 0.00000E+00
 4.40000E+00 0.00000E+00
 4.60000E+00 0.00000E+00
 4.80000E+00 6.14806E+00
 5.00000E+00 1.29697E+01
 5.50000E+00 1.78663E+01
 6.00000E+00 1.58045E+01
 6.50000E+00 1.39842E+01
 7.00000E+00 1.26509E+01
 7.50000E+00 1.15197E+01
 8.00000E+00 9.86711E+00
 8.50000E+00 7.82297E+00
 9.00000E+00 6.02484E+00
 9.50000E+00 4.46842E+00
 1.00000E+01 3.29089E+00
 1.10000E+01 1.89514E+00
 1.20000E+01 1.29107E+00
 1.30000E+01 1.02516E+00
 1.40000E+01 9.08749E-01
 1.50000E+01 8.38716E-01
 1.60000E+01 7.84395E-01
 1.70000E+01 7.56452E-01
 1.80000E+01 7.20358E-01
 1.90000E+01 6.91031E-01
 2.00000E+01 6.71811E-01
 2.10000E+01 6.53969E-01
 2.20000E+01 6.26230E-01
 2.30000E+01 6.07749E-01
 2.40000E+01 5.86877E-01
 2.50000E+01 5.61361E-01
 2.60000E+01 5.44806E-01
 2.70000E+01 5.32796E-01
 2.80000E+01 5.15808E-01
 2.90000E+01 4.99608E-01
 3.00000E+01 4.87534E-01
