# n + 208Pb: Gamma-ray intensity - 209Pb: Level  4 --> Level  3 - gamma energy    0.465130
# E-initial  =   2.032220 E-final=   1.567090
# E-threshold= 0.00000E+00
# # energies = 66
#    E         xs
 1.000E-11 0.00000E+00
 2.530E-08 0.00000E+00
 1.000E-06 0.00000E+00
 1.000E-03 0.00000E+00
 2.000E-03 0.00000E+00
 5.000E-03 0.00000E+00
 1.000E-02 0.00000E+00
 2.000E-02 0.00000E+00
 5.000E-02 0.00000E+00
 1.000E-01 0.00000E+00
 2.000E-01 0.00000E+00
 3.000E-01 0.00000E+00
 4.000E-01 0.00000E+00
 5.000E-01 0.00000E+00
 7.500E-01 0.00000E+00
 1.000E+00 1.14923E-02
 1.200E+00 1.23469E-02
 1.400E+00 1.36240E-02
 1.600E+00 1.48042E-02
 1.800E+00 1.64698E-02
 2.000E+00 1.83960E-02
 2.200E+00 2.08789E-02
 2.400E+00 2.42512E-02
 2.600E+00 2.95704E-02
 2.800E+00 2.81718E-02
 3.000E+00 2.90948E-02
 3.200E+00 3.22500E-02
 3.400E+00 3.48781E-02
 3.600E+00 3.90936E-02
 3.800E+00 4.20342E-02
 4.000E+00 4.66444E-02
 4.200E+00 4.59390E-02
 4.400E+00 3.78444E-02
 4.600E+00 3.14451E-02
 4.800E+00 2.75593E-02
 5.000E+00 2.42227E-02
 5.500E+00 2.14985E-02
 6.000E+00 2.10817E-02
 6.500E+00 2.47893E-02
 7.000E+00 3.18180E-02
 7.500E+00 4.62710E-02
 8.000E+00 7.15494E-02
 8.500E+00 1.15748E-01
 9.000E+00 1.89889E-01
 9.500E+00 2.90816E-01
 1.000E+01 3.74372E-01
 1.100E+01 3.53333E-01
 1.200E+01 2.40060E-01
 1.300E+01 1.49964E-01
 1.400E+01 1.13347E-01
 1.500E+01 9.17086E-02
 1.600E+01 7.79920E-02
 1.700E+01 6.85670E-02
 1.800E+01 5.76751E-02
 1.900E+01 5.34796E-02
 2.000E+01 4.99532E-02
 2.100E+01 4.75339E-02
 2.200E+01 4.55124E-02
 2.300E+01 4.39832E-02
 2.400E+01 4.24701E-02
 2.500E+01 4.12970E-02
 2.600E+01 4.02425E-02
 2.700E+01 3.70886E-02
 2.800E+01 3.50217E-02
 2.900E+01 3.43537E-02
 3.000E+01 3.38279E-02
