# n + 208Pb: Gamma-ray intensity - 209Pb: Level  1 --> Level  0 - gamma energy    0.778800
# E-initial  =   0.778800 E-final=   0.000000
# E-threshold= 0.00000E+00
# # energies = 67
#    E         xs
 1.000E-11 0.00000E+00
 2.530E-08 0.00000E+00
 2.000E-07 0.00000E+00
 1.000E-06 1.44665E-05
 1.000E-03 4.22353E-05
 2.000E-03 7.22615E-05
 5.000E-03 9.02226E-05
 1.000E-02 6.95588E-05
 2.000E-02 4.35969E-05
 5.000E-02 2.88269E-04
 1.000E-01 8.32779E-04
 2.000E-01 2.63356E-03
 3.000E-01 5.09791E-03
 4.000E-01 7.79312E-03
 5.000E-01 1.08023E-02
 7.500E-01 1.79803E-02
 1.000E+00 2.79956E-02
 1.200E+00 3.72187E-02
 1.400E+00 5.00098E-02
 1.600E+00 6.56537E-02
 1.800E+00 8.56215E-02
 2.000E+00 1.11219E-01
 2.200E+00 1.43458E-01
 2.400E+00 1.83823E-01
 2.600E+00 2.34313E-01
 2.800E+00 2.38500E-01
 3.000E+00 2.33989E-01
 3.200E+00 2.41690E-01
 3.400E+00 1.30940E-01
 3.600E+00 1.16728E-01
 3.800E+00 1.05100E-01
 4.000E+00 9.33120E-02
 4.200E+00 7.45922E-02
 4.400E+00 1.05303E-01
 4.600E+00 1.07841E-01
 4.800E+00 1.10254E-01
 5.000E+00 1.18592E-01
 5.500E+00 1.35403E-01
 6.000E+00 1.59118E-01
 6.500E+00 1.93780E-01
 7.000E+00 2.41524E-01
 7.500E+00 2.98798E-01
 8.000E+00 3.54679E-01
 8.500E+00 3.96085E-01
 9.000E+00 4.17354E-01
 9.500E+00 4.22389E-01
 1.000E+01 4.32077E-01
 1.100E+01 4.18111E-01
 1.200E+01 3.96129E-01
 1.300E+01 3.60294E-01
 1.400E+01 3.14431E-01
 1.500E+01 2.62699E-01
 1.600E+01 2.17713E-01
 1.700E+01 1.86014E-01
 1.800E+01 1.62666E-01
 1.900E+01 1.45589E-01
 2.000E+01 1.32703E-01
 2.100E+01 1.23790E-01
 2.200E+01 1.16115E-01
 2.300E+01 1.08916E-01
 2.400E+01 1.02807E-01
 2.500E+01 9.70919E-02
 2.600E+01 9.11954E-02
 2.700E+01 8.58134E-02
 2.800E+01 8.06617E-02
 2.900E+01 7.62416E-02
 3.000E+01 7.15383E-02
