# n + 208Pb: Gamma-ray intensity - 208Pb: Level 11 --> Level  1 - gamma energy    1.435950
# E-initial  =   4.050500 E-final=   2.614550
# E-threshold= 4.07014E+00
# # energies = 67
#    E         xs
 1.000E-11 0.00000E+00
 2.530E-08 0.00000E+00
 2.000E-07 0.00000E+00
 1.000E-06 0.00000E+00
 1.000E-03 0.00000E+00
 2.000E-03 0.00000E+00
 5.000E-03 0.00000E+00
 1.000E-02 0.00000E+00
 2.000E-02 0.00000E+00
 5.000E-02 0.00000E+00
 1.000E-01 0.00000E+00
 2.000E-01 0.00000E+00
 3.000E-01 0.00000E+00
 4.000E-01 0.00000E+00
 5.000E-01 0.00000E+00
 7.500E-01 0.00000E+00
 1.000E+00 0.00000E+00
 1.200E+00 0.00000E+00
 1.400E+00 0.00000E+00
 1.600E+00 0.00000E+00
 1.800E+00 0.00000E+00
 2.000E+00 0.00000E+00
 2.200E+00 0.00000E+00
 2.400E+00 0.00000E+00
 2.600E+00 0.00000E+00
 2.800E+00 0.00000E+00
 3.000E+00 0.00000E+00
 3.200E+00 0.00000E+00
 3.400E+00 0.00000E+00
 3.600E+00 0.00000E+00
 3.800E+00 0.00000E+00
 4.000E+00 0.00000E+00
 4.200E+00 5.87642E+01
 4.400E+00 8.82426E+01
 4.600E+00 9.81639E+01
 4.800E+00 9.83176E+01
 5.000E+00 9.46336E+01
 5.500E+00 8.36789E+01
 6.000E+00 7.56824E+01
 6.500E+00 6.97374E+01
 7.000E+00 6.53412E+01
 7.500E+00 6.22622E+01
 8.000E+00 5.58312E+01
 8.500E+00 4.67258E+01
 9.000E+00 3.73402E+01
 9.500E+00 2.91111E+01
 1.000E+01 2.17888E+01
 1.100E+01 1.24978E+01
 1.200E+01 8.22900E+00
 1.300E+01 6.12381E+00
 1.400E+01 5.12487E+00
 1.500E+01 4.54282E+00
 1.600E+01 4.17275E+00
 1.700E+01 3.96452E+00
 1.800E+01 3.75051E+00
 1.900E+01 3.53400E+00
 2.000E+01 3.41347E+00
 2.100E+01 3.22894E+00
 2.200E+01 3.16444E+00
 2.300E+01 2.98357E+00
 2.400E+01 2.87122E+00
 2.500E+01 2.79727E+00
 2.600E+01 2.61888E+00
 2.700E+01 2.54558E+00
 2.800E+01 2.45074E+00
 2.900E+01 2.41526E+00
 3.000E+01 2.27266E+00
