# n + 208Pb: Gamma-ray intensity - 209Pb: Level  5 --> Level  4 - gamma energy    0.117210
# E-initial  =   2.149430 E-final=   2.032220
# E-threshold= 0.00000E+00
# # energies =    67
#    E           xs
 1.00000E-11 0.00000E+00
 2.53000E-08 0.00000E+00
 2.00000E-07 0.00000E+00
 1.00000E-06 7.84927E+01
 1.00000E-03 1.59113E-01
 2.00000E-03 9.39329E-02
 5.00000E-03 5.01424E-02
 1.00000E-02 2.93092E-02
 2.00000E-02 1.61181E-02
 5.00000E-02 7.24611E-03
 1.00000E-01 4.14399E-03
 2.00000E-01 2.60240E-03
 3.00000E-01 2.14473E-03
 4.00000E-01 1.97213E-03
 5.00000E-01 1.92211E-03
 7.50000E-01 2.04371E-03
 1.00000E+00 2.36980E-03
 1.20000E+00 2.74201E-03
 1.40000E+00 3.20197E-03
 1.60000E+00 3.78201E-03
 1.80000E+00 4.47892E-03
 2.00000E+00 5.30647E-03
 2.20000E+00 6.34788E-03
 2.40000E+00 7.58312E-03
 2.60000E+00 8.93860E-03
 2.80000E+00 9.11882E-03
 3.00000E+00 9.47526E-03
 3.20000E+00 1.03150E-02
 3.40000E+00 1.09811E-02
 3.60000E+00 1.19941E-02
 3.80000E+00 1.25512E-02
 4.00000E+00 1.34138E-02
 4.20000E+00 1.27472E-02
 4.40000E+00 1.03048E-02
 4.60000E+00 8.97268E-03
 4.80000E+00 9.16466E-03
 5.00000E+00 8.33800E-03
 5.50000E+00 6.72763E-03
 6.00000E+00 5.98238E-03
 6.50000E+00 6.22755E-03
 7.00000E+00 7.39435E-03
 7.50000E+00 9.60530E-03
 8.00000E+00 1.38736E-02
 8.50000E+00 2.13244E-02
 9.00000E+00 3.35253E-02
 9.50000E+00 5.15387E-02
 1.00000E+01 6.93463E-02
 1.10000E+01 6.84928E-02
 1.20000E+01 4.61299E-02
 1.30000E+01 3.12563E-02
 1.40000E+01 2.31490E-02
 1.50000E+01 1.86321E-02
 1.60000E+01 1.58300E-02
 1.70000E+01 1.49010E-02
 1.80000E+01 1.37076E-02
 1.90000E+01 1.31833E-02
 2.00000E+01 1.23075E-02
 2.10000E+01 1.11476E-02
 2.20000E+01 9.98566E-03
 2.30000E+01 9.48875E-03
 2.40000E+01 8.52429E-03
 2.50000E+01 8.10226E-03
 2.60000E+01 7.53779E-03
 2.70000E+01 7.24845E-03
 2.80000E+01 6.92818E-03
 2.90000E+01 6.60893E-03
 3.00000E+01 6.42291E-03
