# n + 208Pb: Gamma-ray intensity - 208Pb: Level  5 --> Level  2 - gamma energy    0.722060
# E-initial  =   3.919800 E-final=   3.197740
# E-threshold= 3.93881E+00
# # energies = 67
#    E         xs
 1.000E-11 0.00000E+00
 2.530E-08 0.00000E+00
 2.000E-07 0.00000E+00
 1.000E-06 0.00000E+00
 1.000E-03 0.00000E+00
 2.000E-03 0.00000E+00
 5.000E-03 0.00000E+00
 1.000E-02 0.00000E+00
 2.000E-02 0.00000E+00
 5.000E-02 0.00000E+00
 1.000E-01 0.00000E+00
 2.000E-01 0.00000E+00
 3.000E-01 0.00000E+00
 4.000E-01 0.00000E+00
 5.000E-01 0.00000E+00
 7.500E-01 0.00000E+00
 1.000E+00 0.00000E+00
 1.200E+00 0.00000E+00
 1.400E+00 0.00000E+00
 1.600E+00 0.00000E+00
 1.800E+00 0.00000E+00
 2.000E+00 0.00000E+00
 2.200E+00 0.00000E+00
 2.400E+00 0.00000E+00
 2.600E+00 0.00000E+00
 2.800E+00 0.00000E+00
 3.000E+00 0.00000E+00
 3.200E+00 0.00000E+00
 3.400E+00 0.00000E+00
 3.600E+00 0.00000E+00
 3.800E+00 0.00000E+00
 4.000E+00 4.33813E+00
 4.200E+00 1.06677E+01
 4.400E+00 1.75606E+01
 4.600E+00 2.04537E+01
 4.800E+00 2.14438E+01
 5.000E+00 2.19598E+01
 5.500E+00 2.41169E+01
 6.000E+00 2.74318E+01
 6.500E+00 3.11136E+01
 7.000E+00 3.49576E+01
 7.500E+00 3.88191E+01
 8.000E+00 4.19407E+01
 8.500E+00 4.27496E+01
 9.000E+00 4.02223E+01
 9.500E+00 3.47245E+01
 1.000E+01 2.81773E+01
 1.100E+01 1.71479E+01
 1.200E+01 1.08641E+01
 1.300E+01 8.14154E+00
 1.400E+01 6.88529E+00
 1.500E+01 6.28536E+00
 1.600E+01 5.90828E+00
 1.700E+01 5.69806E+00
 1.800E+01 5.37813E+00
 1.900E+01 5.14768E+00
 2.000E+01 4.90025E+00
 2.100E+01 4.67445E+00
 2.200E+01 4.45242E+00
 2.300E+01 4.28916E+00
 2.400E+01 4.04260E+00
 2.500E+01 3.86397E+00
 2.600E+01 3.64935E+00
 2.700E+01 3.50386E+00
 2.800E+01 3.39360E+00
 2.900E+01 3.19920E+00
 3.000E+01 3.09098E+00
