# n + 208Pb: Gamma-ray intensity - 208Pb: Level 26 --> Level  9 - gamma energy    0.573305
# E-initial  =   4.610748 E-final=   4.037443
# E-threshold= 4.63311E+00
# # energies =    67
#    E           xs
 1.00000E-11 0.00000E+00
 2.53000E-08 0.00000E+00
 2.00000E-07 0.00000E+00
 1.00000E-06 0.00000E+00
 1.00000E-03 0.00000E+00
 2.00000E-03 0.00000E+00
 5.00000E-03 0.00000E+00
 1.00000E-02 0.00000E+00
 2.00000E-02 0.00000E+00
 5.00000E-02 0.00000E+00
 1.00000E-01 0.00000E+00
 2.00000E-01 0.00000E+00
 3.00000E-01 0.00000E+00
 4.00000E-01 0.00000E+00
 5.00000E-01 0.00000E+00
 7.50000E-01 0.00000E+00
 1.00000E+00 0.00000E+00
 1.20000E+00 0.00000E+00
 1.40000E+00 0.00000E+00
 1.60000E+00 0.00000E+00
 1.80000E+00 0.00000E+00
 2.00000E+00 0.00000E+00
 2.20000E+00 0.00000E+00
 2.40000E+00 0.00000E+00
 2.60000E+00 0.00000E+00
 2.80000E+00 0.00000E+00
 3.00000E+00 0.00000E+00
 3.20000E+00 0.00000E+00
 3.40000E+00 0.00000E+00
 3.60000E+00 0.00000E+00
 3.80000E+00 0.00000E+00
 4.00000E+00 0.00000E+00
 4.20000E+00 0.00000E+00
 4.40000E+00 0.00000E+00
 4.60000E+00 0.00000E+00
 4.80000E+00 1.26476E-02
 5.00000E+00 3.50340E-02
 5.50000E+00 1.63142E-01
 6.00000E+00 4.05838E-01
 6.50000E+00 7.12624E-01
 7.00000E+00 1.06865E+00
 7.50000E+00 1.49952E+00
 8.00000E+00 1.97930E+00
 8.50000E+00 2.45097E+00
 9.00000E+00 2.81968E+00
 9.50000E+00 2.96670E+00
 1.00000E+01 2.85724E+00
 1.10000E+01 2.24779E+00
 1.20000E+01 1.54021E+00
 1.30000E+01 1.08140E+00
 1.40000E+01 8.67598E-01
 1.50000E+01 7.66461E-01
 1.60000E+01 7.27875E-01
 1.70000E+01 7.18793E-01
 1.80000E+01 6.97192E-01
 1.90000E+01 6.77385E-01
 2.00000E+01 6.73157E-01
 2.10000E+01 6.59898E-01
 2.20000E+01 6.44906E-01
 2.30000E+01 6.29981E-01
 2.40000E+01 6.12327E-01
 2.50000E+01 5.78083E-01
 2.60000E+01 5.50300E-01
 2.70000E+01 5.26087E-01
 2.80000E+01 4.95411E-01
 2.90000E+01 4.73610E-01
 3.00000E+01 4.53235E-01
