# n + 208Pb: Gamma-ray intensity - 208Pb: Level  4 --> Level  1 - gamma energy    1.093929
# E-initial  =   3.708451 E-final=   2.614522
# E-threshold= 3.72644E+00
# # energies =    67
#    E           xs
 1.00000E-11 0.00000E+00
 2.53000E-08 0.00000E+00
 2.00000E-07 0.00000E+00
 1.00000E-06 0.00000E+00
 1.00000E-03 0.00000E+00
 2.00000E-03 0.00000E+00
 5.00000E-03 0.00000E+00
 1.00000E-02 0.00000E+00
 2.00000E-02 0.00000E+00
 5.00000E-02 0.00000E+00
 1.00000E-01 0.00000E+00
 2.00000E-01 0.00000E+00
 3.00000E-01 0.00000E+00
 4.00000E-01 0.00000E+00
 5.00000E-01 0.00000E+00
 7.50000E-01 0.00000E+00
 1.00000E+00 0.00000E+00
 1.20000E+00 0.00000E+00
 1.40000E+00 0.00000E+00
 1.60000E+00 0.00000E+00
 1.80000E+00 0.00000E+00
 2.00000E+00 0.00000E+00
 2.20000E+00 0.00000E+00
 2.40000E+00 0.00000E+00
 2.60000E+00 0.00000E+00
 2.80000E+00 0.00000E+00
 3.00000E+00 0.00000E+00
 3.20000E+00 0.00000E+00
 3.40000E+00 0.00000E+00
 3.60000E+00 0.00000E+00
 3.80000E+00 7.08049E-01
 4.00000E+00 1.88008E+00
 4.20000E+00 2.92208E+00
 4.40000E+00 3.58055E+00
 4.60000E+00 3.92044E+00
 4.80000E+00 4.16687E+00
 5.00000E+00 4.32826E+00
 5.50000E+00 4.48776E+00
 6.00000E+00 4.51462E+00
 6.50000E+00 4.58829E+00
 7.00000E+00 4.75028E+00
 7.50000E+00 4.97844E+00
 8.00000E+00 5.09677E+00
 8.50000E+00 4.90920E+00
 9.00000E+00 4.37970E+00
 9.50000E+00 3.65561E+00
 1.00000E+01 2.89296E+00
 1.10000E+01 1.67698E+00
 1.20000E+01 1.00831E+00
 1.30000E+01 7.03136E-01
 1.40000E+01 5.68380E-01
 1.50000E+01 5.02651E-01
 1.60000E+01 4.62983E-01
 1.70000E+01 4.38866E-01
 1.80000E+01 4.10518E-01
 1.90000E+01 3.86324E-01
 2.00000E+01 3.68520E-01
 2.10000E+01 3.50261E-01
 2.20000E+01 3.32005E-01
 2.30000E+01 3.16318E-01
 2.40000E+01 3.00094E-01
 2.50000E+01 2.79913E-01
 2.60000E+01 2.65473E-01
 2.70000E+01 2.52055E-01
 2.80000E+01 2.40178E-01
 2.90000E+01 2.30566E-01
 3.00000E+01 2.21281E-01
