# n + 208Pb: Gamma-ray intensity - 208Pb: Level  4 --> Level  3 - gamma energy    0.233370
# E-initial  =   3.708450 E-final=   3.475080
# E-threshold= 3.72644E+00
# # energies = 67
#    E         xs
 1.000E-11 0.00000E+00
 2.530E-08 0.00000E+00
 2.000E-07 0.00000E+00
 1.000E-06 0.00000E+00
 1.000E-03 0.00000E+00
 2.000E-03 0.00000E+00
 5.000E-03 0.00000E+00
 1.000E-02 0.00000E+00
 2.000E-02 0.00000E+00
 5.000E-02 0.00000E+00
 1.000E-01 0.00000E+00
 2.000E-01 0.00000E+00
 3.000E-01 0.00000E+00
 4.000E-01 0.00000E+00
 5.000E-01 0.00000E+00
 7.500E-01 0.00000E+00
 1.000E+00 0.00000E+00
 1.200E+00 0.00000E+00
 1.400E+00 0.00000E+00
 1.600E+00 0.00000E+00
 1.800E+00 0.00000E+00
 2.000E+00 0.00000E+00
 2.200E+00 0.00000E+00
 2.400E+00 0.00000E+00
 2.600E+00 0.00000E+00
 2.800E+00 0.00000E+00
 3.000E+00 0.00000E+00
 3.200E+00 0.00000E+00
 3.400E+00 0.00000E+00
 3.600E+00 0.00000E+00
 3.800E+00 5.49810E-01
 4.000E+00 1.43834E+00
 4.200E+00 2.20737E+00
 4.400E+00 2.69807E+00
 4.600E+00 2.95487E+00
 4.800E+00 3.14589E+00
 5.000E+00 3.28919E+00
 5.500E+00 3.44848E+00
 6.000E+00 3.48586E+00
 6.500E+00 3.54638E+00
 7.000E+00 3.67037E+00
 7.500E+00 3.84365E+00
 8.000E+00 3.94621E+00
 8.500E+00 3.84932E+00
 9.000E+00 3.51339E+00
 9.500E+00 3.02495E+00
 1.000E+01 2.48468E+00
 1.100E+01 1.55942E+00
 1.200E+01 1.00267E+00
 1.300E+01 7.24771E-01
 1.400E+01 5.92248E-01
 1.500E+01 5.24151E-01
 1.600E+01 4.82839E-01
 1.700E+01 4.55996E-01
 1.800E+01 4.28998E-01
 1.900E+01 4.06093E-01
 2.000E+01 3.88921E-01
 2.100E+01 3.70998E-01
 2.200E+01 3.53303E-01
 2.300E+01 3.37989E-01
 2.400E+01 3.22189E-01
 2.500E+01 3.03072E-01
 2.600E+01 2.87628E-01
 2.700E+01 2.75407E-01
 2.800E+01 2.65034E-01
 2.900E+01 2.55758E-01
 3.000E+01 2.46721E-01
