# n + 208Pb: Gamma-ray intensity - 209Pb: Level  6 --> Level  4 - gamma energy    0.286780
# E-initial  =   2.319000 E-final=   2.032220
# E-threshold= 0.00000E+00
# # energies = 66
#    E         xs
 1.000E-11 0.00000E+00
 2.530E-08 0.00000E+00
 1.000E-06 0.00000E+00
 1.000E-03 0.00000E+00
 2.000E-03 0.00000E+00
 5.000E-03 0.00000E+00
 1.000E-02 0.00000E+00
 2.000E-02 0.00000E+00
 5.000E-02 0.00000E+00
 1.000E-01 0.00000E+00
 2.000E-01 0.00000E+00
 3.000E-01 0.00000E+00
 4.000E-01 0.00000E+00
 5.000E-01 0.00000E+00
 7.500E-01 0.00000E+00
 1.000E+00 4.97217E-03
 1.200E+00 5.36551E-03
 1.400E+00 5.93936E-03
 1.600E+00 6.46891E-03
 1.800E+00 7.20175E-03
 2.000E+00 8.04580E-03
 2.200E+00 9.00025E-03
 2.400E+00 1.02894E-02
 2.600E+00 1.25838E-02
 2.800E+00 1.11494E-02
 3.000E+00 1.13037E-02
 3.200E+00 1.24634E-02
 3.400E+00 1.33871E-02
 3.600E+00 1.48429E-02
 3.800E+00 1.57342E-02
 4.000E+00 1.72706E-02
 4.200E+00 1.65125E-02
 4.400E+00 1.32345E-02
 4.600E+00 1.10958E-02
 4.800E+00 9.58787E-03
 5.000E+00 8.32382E-03
 5.500E+00 7.08045E-03
 6.000E+00 6.44483E-03
 6.500E+00 7.07866E-03
 7.000E+00 8.37565E-03
 7.500E+00 1.15144E-02
 8.000E+00 1.70386E-02
 8.500E+00 2.64855E-02
 9.000E+00 4.34152E-02
 9.500E+00 6.94617E-02
 1.000E+01 9.59090E-02
 1.100E+01 1.00645E-01
 1.200E+01 7.07465E-02
 1.300E+01 4.24783E-02
 1.400E+01 3.26007E-02
 1.500E+01 2.59371E-02
 1.600E+01 2.18302E-02
 1.700E+01 1.90558E-02
 1.800E+01 1.54701E-02
 1.900E+01 1.41548E-02
 2.000E+01 1.32007E-02
 2.100E+01 1.25810E-02
 2.200E+01 1.20627E-02
 2.300E+01 1.16889E-02
 2.400E+01 1.13109E-02
 2.500E+01 1.10391E-02
 2.600E+01 1.07957E-02
 2.700E+01 9.93833E-03
 2.800E+01 9.06939E-03
 2.900E+01 8.90773E-03
 3.000E+01 8.79587E-03
