# n + 208Pb: Gamma-ray intensity - 208Pb: Level 29 --> Level  2 - gamma energy    1.511016
# E-initial  =   4.708727 E-final=   3.197711
# E-threshold= 4.73156E+00
# # energies =    67
#    E           xs
 1.00000E-11 0.00000E+00
 2.53000E-08 0.00000E+00
 2.00000E-07 0.00000E+00
 1.00000E-06 0.00000E+00
 1.00000E-03 0.00000E+00
 2.00000E-03 0.00000E+00
 5.00000E-03 0.00000E+00
 1.00000E-02 0.00000E+00
 2.00000E-02 0.00000E+00
 5.00000E-02 0.00000E+00
 1.00000E-01 0.00000E+00
 2.00000E-01 0.00000E+00
 3.00000E-01 0.00000E+00
 4.00000E-01 0.00000E+00
 5.00000E-01 0.00000E+00
 7.50000E-01 0.00000E+00
 1.00000E+00 0.00000E+00
 1.20000E+00 0.00000E+00
 1.40000E+00 0.00000E+00
 1.60000E+00 0.00000E+00
 1.80000E+00 0.00000E+00
 2.00000E+00 0.00000E+00
 2.20000E+00 0.00000E+00
 2.40000E+00 0.00000E+00
 2.60000E+00 0.00000E+00
 2.80000E+00 0.00000E+00
 3.00000E+00 0.00000E+00
 3.20000E+00 0.00000E+00
 3.40000E+00 0.00000E+00
 3.60000E+00 0.00000E+00
 3.80000E+00 0.00000E+00
 4.00000E+00 0.00000E+00
 4.20000E+00 0.00000E+00
 4.40000E+00 0.00000E+00
 4.60000E+00 0.00000E+00
 4.80000E+00 2.23222E+00
 5.00000E+00 4.84700E+00
 5.50000E+00 7.34980E+00
 6.00000E+00 6.93763E+00
 6.50000E+00 6.40422E+00
 7.00000E+00 6.02698E+00
 7.50000E+00 5.73292E+00
 8.00000E+00 5.41383E+00
 8.50000E+00 4.85111E+00
 9.00000E+00 4.04101E+00
 9.50000E+00 3.19129E+00
 1.00000E+01 2.42441E+00
 1.10000E+01 1.35470E+00
 1.20000E+01 8.46904E-01
 1.30000E+01 6.27410E-01
 1.40000E+01 5.29866E-01
 1.50000E+01 4.79746E-01
 1.60000E+01 4.46815E-01
 1.70000E+01 4.26555E-01
 1.80000E+01 4.05429E-01
 1.90000E+01 3.87605E-01
 2.00000E+01 3.73300E-01
 2.10000E+01 3.59594E-01
 2.20000E+01 3.45327E-01
 2.30000E+01 3.32214E-01
 2.40000E+01 3.18569E-01
 2.50000E+01 3.05317E-01
 2.60000E+01 2.93088E-01
 2.70000E+01 2.84022E-01
 2.80000E+01 2.72359E-01
 2.90000E+01 2.63845E-01
 3.00000E+01 2.55486E-01
