# n + 208Pb: Gamma-ray intensity - 209Pb: Level  9 --> Level  3 - gamma energy    0.923910
# E-initial  =   2.491000 E-final=   1.567090
# E-threshold= 0.00000E+00
# # energies =    67
#    E           xs
 1.00000E-11 0.00000E+00
 2.53000E-08 0.00000E+00
 2.00000E-07 0.00000E+00
 1.00000E-06 5.91255E-06
 1.00000E-03 1.39663E-05
 2.00000E-03 2.35368E-05
 5.00000E-03 3.04689E-05
 1.00000E-02 2.39834E-05
 2.00000E-02 1.51885E-05
 5.00000E-02 3.81370E-05
 1.00000E-01 4.18513E-05
 2.00000E-01 3.55531E-05
 3.00000E-01 3.27659E-05
 4.00000E-01 3.26036E-05
 5.00000E-01 3.42802E-05
 7.50000E-01 4.22321E-05
 1.00000E+00 5.28224E-05
 1.20000E+00 6.32727E-05
 1.40000E+00 7.55042E-05
 1.60000E+00 9.04258E-05
 1.80000E+00 1.08238E-04
 2.00000E+00 1.29377E-04
 2.20000E+00 1.55713E-04
 2.40000E+00 1.85534E-04
 2.60000E+00 2.20751E-04
 2.80000E+00 1.69537E-04
 3.00000E+00 1.61898E-04
 3.20000E+00 1.70057E-04
 3.40000E+00 1.64762E-04
 3.60000E+00 1.64515E-04
 3.80000E+00 1.66460E-04
 4.00000E+00 1.70230E-04
 4.20000E+00 1.54090E-04
 4.40000E+00 1.31675E-04
 4.60000E+00 1.17812E-04
 4.80000E+00 1.11788E-04
 5.00000E+00 1.03097E-04
 5.50000E+00 8.65398E-05
 6.00000E+00 7.23346E-05
 6.50000E+00 6.29121E-05
 7.00000E+00 5.72793E-05
 7.50000E+00 5.70177E-05
 8.00000E+00 6.26667E-05
 8.50000E+00 7.53697E-05
 9.00000E+00 1.00274E-04
 9.50000E+00 1.42068E-04
 1.00000E+01 1.99603E-04
 1.10000E+01 2.76105E-04
 1.20000E+01 2.16790E-04
 1.30000E+01 1.43125E-04
 1.40000E+01 1.03289E-04
 1.50000E+01 8.89191E-05
 1.60000E+01 7.48007E-05
 1.70000E+01 7.58406E-05
 1.80000E+01 7.12422E-05
 1.90000E+01 7.08219E-05
 2.00000E+01 6.95643E-05
 2.10000E+01 6.18869E-05
 2.20000E+01 5.32415E-05
 2.30000E+01 4.94393E-05
 2.40000E+01 3.99791E-05
 2.50000E+01 3.71977E-05
 2.60000E+01 3.23645E-05
 2.70000E+01 3.08015E-05
 2.80000E+01 3.03625E-05
 2.90000E+01 2.85513E-05
 3.00000E+01 2.76917E-05
