# n + 208Pb: Gamma-ray intensity - 208Pb: Level  9 --> Level  5 - gamma energy    0.117470
# E-initial  =   4.037440 E-final=   3.919970
# E-threshold= 4.05702E+00
# # energies = 67
#    E         xs
 1.000E-11 0.00000E+00
 2.530E-08 0.00000E+00
 2.000E-07 0.00000E+00
 1.000E-06 0.00000E+00
 1.000E-03 0.00000E+00
 2.000E-03 0.00000E+00
 5.000E-03 0.00000E+00
 1.000E-02 0.00000E+00
 2.000E-02 0.00000E+00
 5.000E-02 0.00000E+00
 1.000E-01 0.00000E+00
 2.000E-01 0.00000E+00
 3.000E-01 0.00000E+00
 4.000E-01 0.00000E+00
 5.000E-01 0.00000E+00
 7.500E-01 0.00000E+00
 1.000E+00 0.00000E+00
 1.200E+00 0.00000E+00
 1.400E+00 0.00000E+00
 1.600E+00 0.00000E+00
 1.800E+00 0.00000E+00
 2.000E+00 0.00000E+00
 2.200E+00 0.00000E+00
 2.400E+00 0.00000E+00
 2.600E+00 0.00000E+00
 2.800E+00 0.00000E+00
 3.000E+00 0.00000E+00
 3.200E+00 0.00000E+00
 3.400E+00 0.00000E+00
 3.600E+00 0.00000E+00
 3.800E+00 0.00000E+00
 4.000E+00 0.00000E+00
 4.200E+00 2.58790E-01
 4.400E+00 6.87858E-01
 4.600E+00 9.90259E-01
 4.800E+00 1.20161E+00
 5.000E+00 1.38640E+00
 5.500E+00 1.95290E+00
 6.000E+00 2.70480E+00
 6.500E+00 3.64803E+00
 7.000E+00 4.76020E+00
 7.500E+00 5.96846E+00
 8.000E+00 7.15889E+00
 8.500E+00 8.16019E+00
 9.000E+00 8.61690E+00
 9.500E+00 8.39513E+00
 1.000E+01 7.58783E+00
 1.100E+01 5.39976E+00
 1.200E+01 3.54569E+00
 1.300E+01 2.49691E+00
 1.400E+01 1.98249E+00
 1.500E+01 1.72504E+00
 1.600E+01 1.59154E+00
 1.700E+01 1.51669E+00
 1.800E+01 1.43616E+00
 1.900E+01 1.36601E+00
 2.000E+01 1.32709E+00
 2.100E+01 1.27180E+00
 2.200E+01 1.21796E+00
 2.300E+01 1.17378E+00
 2.400E+01 1.12435E+00
 2.500E+01 1.05232E+00
 2.600E+01 1.00220E+00
 2.700E+01 9.53066E-01
 2.800E+01 9.11936E-01
 2.900E+01 8.76229E-01
 3.000E+01 8.43968E-01
