# n + 208Pb: Gamma-ray intensity - 208Pb: Level 14 --> Level  2 - gamma energy    0.927570
# E-initial  =   4.125310 E-final=   3.197740
# E-threshold= 4.14532E+00
# # energies = 67
#    E         xs
 1.000E-11 0.00000E+00
 2.530E-08 0.00000E+00
 2.000E-07 0.00000E+00
 1.000E-06 0.00000E+00
 1.000E-03 0.00000E+00
 2.000E-03 0.00000E+00
 5.000E-03 0.00000E+00
 1.000E-02 0.00000E+00
 2.000E-02 0.00000E+00
 5.000E-02 0.00000E+00
 1.000E-01 0.00000E+00
 2.000E-01 0.00000E+00
 3.000E-01 0.00000E+00
 4.000E-01 0.00000E+00
 5.000E-01 0.00000E+00
 7.500E-01 0.00000E+00
 1.000E+00 0.00000E+00
 1.200E+00 0.00000E+00
 1.400E+00 0.00000E+00
 1.600E+00 0.00000E+00
 1.800E+00 0.00000E+00
 2.000E+00 0.00000E+00
 2.200E+00 0.00000E+00
 2.400E+00 0.00000E+00
 2.600E+00 0.00000E+00
 2.800E+00 0.00000E+00
 3.000E+00 0.00000E+00
 3.200E+00 0.00000E+00
 3.400E+00 0.00000E+00
 3.600E+00 0.00000E+00
 3.800E+00 0.00000E+00
 4.000E+00 0.00000E+00
 4.200E+00 2.09220E+01
 4.400E+00 4.61070E+01
 4.600E+00 5.85066E+01
 4.800E+00 6.27135E+01
 5.000E+00 6.24436E+01
 5.500E+00 5.57784E+01
 6.000E+00 4.93154E+01
 6.500E+00 4.45160E+01
 7.000E+00 4.12338E+01
 7.500E+00 3.94709E+01
 8.000E+00 3.71787E+01
 8.500E+00 3.30163E+01
 9.000E+00 2.76134E+01
 9.500E+00 2.20539E+01
 1.000E+01 1.69667E+01
 1.100E+01 9.70934E+00
 1.200E+01 5.95365E+00
 1.300E+01 4.15842E+00
 1.400E+01 3.30114E+00
 1.500E+01 2.85870E+00
 1.600E+01 2.58759E+00
 1.700E+01 2.45163E+00
 1.800E+01 2.30190E+00
 1.900E+01 2.17613E+00
 2.000E+01 2.07810E+00
 2.100E+01 1.99639E+00
 2.200E+01 1.95202E+00
 2.300E+01 1.87387E+00
 2.400E+01 1.79747E+00
 2.500E+01 1.73544E+00
 2.600E+01 1.65218E+00
 2.700E+01 1.59611E+00
 2.800E+01 1.53773E+00
 2.900E+01 1.49396E+00
 3.000E+01 1.43666E+00
