# n + 208Pb: Gamma-ray intensity - 207Pb: Level  4 --> Level  1 - gamma energy    1.770247
# E-initial  =   2.339950 E-final=   0.569703
# E-threshold= 9.75485E+00
# # energies = 67
#    E         xs
 1.000E-11 0.00000E+00
 2.530E-08 0.00000E+00
 2.000E-07 0.00000E+00
 1.000E-06 0.00000E+00
 1.000E-03 0.00000E+00
 2.000E-03 0.00000E+00
 5.000E-03 0.00000E+00
 1.000E-02 0.00000E+00
 2.000E-02 0.00000E+00
 5.000E-02 0.00000E+00
 1.000E-01 0.00000E+00
 2.000E-01 0.00000E+00
 3.000E-01 0.00000E+00
 4.000E-01 0.00000E+00
 5.000E-01 0.00000E+00
 7.500E-01 0.00000E+00
 1.000E+00 0.00000E+00
 1.200E+00 0.00000E+00
 1.400E+00 0.00000E+00
 1.600E+00 0.00000E+00
 1.800E+00 0.00000E+00
 2.000E+00 0.00000E+00
 2.200E+00 0.00000E+00
 2.400E+00 0.00000E+00
 2.600E+00 0.00000E+00
 2.800E+00 0.00000E+00
 3.000E+00 0.00000E+00
 3.200E+00 0.00000E+00
 3.400E+00 0.00000E+00
 3.600E+00 0.00000E+00
 3.800E+00 0.00000E+00
 4.000E+00 0.00000E+00
 4.200E+00 0.00000E+00
 4.400E+00 0.00000E+00
 4.600E+00 0.00000E+00
 4.800E+00 0.00000E+00
 5.000E+00 0.00000E+00
 5.500E+00 0.00000E+00
 6.000E+00 0.00000E+00
 6.500E+00 0.00000E+00
 7.000E+00 0.00000E+00
 7.500E+00 0.00000E+00
 8.000E+00 0.00000E+00
 8.500E+00 0.00000E+00
 9.000E+00 0.00000E+00
 9.500E+00 0.00000E+00
 1.000E+01 2.07482E+00
 1.100E+01 6.06885E+01
 1.200E+01 1.41330E+02
 1.300E+01 1.91395E+02
 1.400E+01 2.09383E+02
 1.500E+01 2.11467E+02
 1.600E+01 2.00619E+02
 1.700E+01 1.72746E+02
 1.800E+01 1.35680E+02
 1.900E+01 1.01182E+02
 2.000E+01 7.54860E+01
 2.100E+01 5.80548E+01
 2.200E+01 4.72413E+01
 2.300E+01 4.04384E+01
 2.400E+01 3.60090E+01
 2.500E+01 3.31308E+01
 2.600E+01 3.09819E+01
 2.700E+01 2.91075E+01
 2.800E+01 2.77254E+01
 2.900E+01 2.63840E+01
 3.000E+01 2.53576E+01
