# n + 208Pb: Gamma-ray intensity - 208Pb: Level 29 --> Level 19 - gamma energy    0.412167
# E-initial  =   4.708727 E-final=   4.296560
# E-threshold= 4.73156E+00
# # energies =    67
#    E           xs
 1.00000E-11 0.00000E+00
 2.53000E-08 0.00000E+00
 2.00000E-07 0.00000E+00
 1.00000E-06 0.00000E+00
 1.00000E-03 0.00000E+00
 2.00000E-03 0.00000E+00
 5.00000E-03 0.00000E+00
 1.00000E-02 0.00000E+00
 2.00000E-02 0.00000E+00
 5.00000E-02 0.00000E+00
 1.00000E-01 0.00000E+00
 2.00000E-01 0.00000E+00
 3.00000E-01 0.00000E+00
 4.00000E-01 0.00000E+00
 5.00000E-01 0.00000E+00
 7.50000E-01 0.00000E+00
 1.00000E+00 0.00000E+00
 1.20000E+00 0.00000E+00
 1.40000E+00 0.00000E+00
 1.60000E+00 0.00000E+00
 1.80000E+00 0.00000E+00
 2.00000E+00 0.00000E+00
 2.20000E+00 0.00000E+00
 2.40000E+00 0.00000E+00
 2.60000E+00 0.00000E+00
 2.80000E+00 0.00000E+00
 3.00000E+00 0.00000E+00
 3.20000E+00 0.00000E+00
 3.40000E+00 0.00000E+00
 3.60000E+00 0.00000E+00
 3.80000E+00 0.00000E+00
 4.00000E+00 0.00000E+00
 4.20000E+00 0.00000E+00
 4.40000E+00 0.00000E+00
 4.60000E+00 0.00000E+00
 4.80000E+00 7.81126E-01
 5.00000E+00 1.69613E+00
 5.50000E+00 2.57198E+00
 6.00000E+00 2.42778E+00
 6.50000E+00 2.24114E+00
 7.00000E+00 2.10914E+00
 7.50000E+00 2.00623E+00
 8.00000E+00 1.89455E+00
 8.50000E+00 1.69764E+00
 9.00000E+00 1.41416E+00
 9.50000E+00 1.11681E+00
 1.00000E+01 8.48450E-01
 1.10000E+01 4.74100E-01
 1.20000E+01 2.96384E-01
 1.30000E+01 2.19565E-01
 1.40000E+01 1.85426E-01
 1.50000E+01 1.67884E-01
 1.60000E+01 1.56360E-01
 1.70000E+01 1.49269E-01
 1.80000E+01 1.41877E-01
 1.90000E+01 1.35684E-01
 2.00000E+01 1.30634E-01
 2.10000E+01 1.25838E-01
 2.20000E+01 1.20845E-01
 2.30000E+01 1.16257E-01
 2.40000E+01 1.11482E-01
 2.50000E+01 1.06845E-01
 2.60000E+01 1.02566E-01
 2.70000E+01 9.93930E-02
 2.80000E+01 9.53113E-02
 2.90000E+01 9.23322E-02
 3.00000E+01 8.94072E-02
