# n + 208Pb: Gamma-ray intensity - 208Pb: Level  5 --> Level  4 - gamma energy    0.211515
# E-initial  =   3.919966 E-final=   3.708451
# E-threshold= 3.93898E+00
# # energies =    67
#    E           xs
 1.00000E-11 0.00000E+00
 2.53000E-08 0.00000E+00
 2.00000E-07 0.00000E+00
 1.00000E-06 0.00000E+00
 1.00000E-03 0.00000E+00
 2.00000E-03 0.00000E+00
 5.00000E-03 0.00000E+00
 1.00000E-02 0.00000E+00
 2.00000E-02 0.00000E+00
 5.00000E-02 0.00000E+00
 1.00000E-01 0.00000E+00
 2.00000E-01 0.00000E+00
 3.00000E-01 0.00000E+00
 4.00000E-01 0.00000E+00
 5.00000E-01 0.00000E+00
 7.50000E-01 0.00000E+00
 1.00000E+00 0.00000E+00
 1.20000E+00 0.00000E+00
 1.40000E+00 0.00000E+00
 1.60000E+00 0.00000E+00
 1.80000E+00 0.00000E+00
 2.00000E+00 0.00000E+00
 2.20000E+00 0.00000E+00
 2.40000E+00 0.00000E+00
 2.60000E+00 0.00000E+00
 2.80000E+00 0.00000E+00
 3.00000E+00 0.00000E+00
 3.20000E+00 0.00000E+00
 3.40000E+00 0.00000E+00
 3.60000E+00 0.00000E+00
 3.80000E+00 0.00000E+00
 4.00000E+00 5.61164E+00
 4.20000E+00 1.19093E+01
 4.40000E+00 1.50180E+01
 4.60000E+00 1.64636E+01
 4.80000E+00 1.74668E+01
 5.00000E+00 1.87538E+01
 5.50000E+00 2.25429E+01
 6.00000E+00 2.63744E+01
 6.50000E+00 3.08474E+01
 7.00000E+00 3.60762E+01
 7.50000E+00 4.16761E+01
 8.00000E+00 4.68204E+01
 8.50000E+00 4.98440E+01
 9.00000E+00 4.86315E+01
 9.50000E+00 4.36185E+01
 1.00000E+01 3.63445E+01
 1.10000E+01 2.23209E+01
 1.20000E+01 1.32536E+01
 1.30000E+01 8.90518E+00
 1.40000E+01 6.99170E+00
 1.50000E+01 6.10923E+00
 1.60000E+01 5.63934E+00
 1.70000E+01 5.37357E+00
 1.80000E+01 5.03383E+00
 1.90000E+01 4.73580E+00
 2.00000E+01 4.55520E+00
 2.10000E+01 4.33171E+00
 2.20000E+01 4.11111E+00
 2.30000E+01 3.93095E+00
 2.40000E+01 3.73110E+00
 2.50000E+01 3.45839E+00
 2.60000E+01 3.28131E+00
 2.70000E+01 3.08131E+00
 2.80000E+01 2.92051E+00
 2.90000E+01 2.79612E+00
 3.00000E+01 2.67886E+00
