# n + 208Pb: Gamma-ray intensity - 208Pb: Level  7 --> Level  3 - gamma energy    0.485850
# E-initial  =   3.960960 E-final=   3.475110
# E-threshold= 3.98017E+00
# # energies = 67
#    E         xs
 1.000E-11 0.00000E+00
 2.530E-08 0.00000E+00
 2.000E-07 0.00000E+00
 1.000E-06 0.00000E+00
 1.000E-03 0.00000E+00
 2.000E-03 0.00000E+00
 5.000E-03 0.00000E+00
 1.000E-02 0.00000E+00
 2.000E-02 0.00000E+00
 5.000E-02 0.00000E+00
 1.000E-01 0.00000E+00
 2.000E-01 0.00000E+00
 3.000E-01 0.00000E+00
 4.000E-01 0.00000E+00
 5.000E-01 0.00000E+00
 7.500E-01 0.00000E+00
 1.000E+00 0.00000E+00
 1.200E+00 0.00000E+00
 1.400E+00 0.00000E+00
 1.600E+00 0.00000E+00
 1.800E+00 0.00000E+00
 2.000E+00 0.00000E+00
 2.200E+00 0.00000E+00
 2.400E+00 0.00000E+00
 2.600E+00 0.00000E+00
 2.800E+00 0.00000E+00
 3.000E+00 0.00000E+00
 3.200E+00 0.00000E+00
 3.400E+00 0.00000E+00
 3.600E+00 0.00000E+00
 3.800E+00 0.00000E+00
 4.000E+00 2.78471E-01
 4.200E+00 8.92817E-01
 4.400E+00 1.15082E+00
 4.600E+00 1.26297E+00
 4.800E+00 1.29178E+00
 5.000E+00 1.28692E+00
 5.500E+00 1.24567E+00
 6.000E+00 1.20698E+00
 6.500E+00 1.18523E+00
 7.000E+00 1.18913E+00
 7.500E+00 1.21625E+00
 8.000E+00 1.21987E+00
 8.500E+00 1.15220E+00
 9.000E+00 1.01030E+00
 9.500E+00 8.39481E-01
 1.000E+01 6.69058E-01
 1.100E+01 4.02374E-01
 1.200E+01 2.56389E-01
 1.300E+01 1.85978E-01
 1.400E+01 1.52171E-01
 1.500E+01 1.34720E-01
 1.600E+01 1.23962E-01
 1.700E+01 1.17470E-01
 1.800E+01 1.10305E-01
 1.900E+01 1.04564E-01
 2.000E+01 9.97601E-02
 2.100E+01 9.53298E-02
 2.200E+01 9.15717E-02
 2.300E+01 8.76270E-02
 2.400E+01 8.34150E-02
 2.500E+01 7.99117E-02
 2.600E+01 7.60499E-02
 2.700E+01 7.32891E-02
 2.800E+01 7.02690E-02
 2.900E+01 6.81726E-02
 3.000E+01 6.53757E-02
