# n + 208Pb: Gamma-ray intensity - 208Pb: Level 14 --> Level  2 - gamma energy    0.927570
# E-initial  =   4.125310 E-final=   3.197740
# E-threshold= 4.14532E+00
# # energies = 67
#    E         xs
 1.000E-11 0.00000E+00
 2.530E-08 0.00000E+00
 2.000E-07 0.00000E+00
 1.000E-06 0.00000E+00
 1.000E-03 0.00000E+00
 2.000E-03 0.00000E+00
 5.000E-03 0.00000E+00
 1.000E-02 0.00000E+00
 2.000E-02 0.00000E+00
 5.000E-02 0.00000E+00
 1.000E-01 0.00000E+00
 2.000E-01 0.00000E+00
 3.000E-01 0.00000E+00
 4.000E-01 0.00000E+00
 5.000E-01 0.00000E+00
 7.500E-01 0.00000E+00
 1.000E+00 0.00000E+00
 1.200E+00 0.00000E+00
 1.400E+00 0.00000E+00
 1.600E+00 0.00000E+00
 1.800E+00 0.00000E+00
 2.000E+00 0.00000E+00
 2.200E+00 0.00000E+00
 2.400E+00 0.00000E+00
 2.600E+00 0.00000E+00
 2.800E+00 0.00000E+00
 3.000E+00 0.00000E+00
 3.200E+00 0.00000E+00
 3.400E+00 0.00000E+00
 3.600E+00 0.00000E+00
 3.800E+00 0.00000E+00
 4.000E+00 0.00000E+00
 4.200E+00 2.09066E+01
 4.400E+00 4.42289E+01
 4.600E+00 5.03913E+01
 4.800E+00 4.80004E+01
 5.000E+00 4.32857E+01
 5.500E+00 3.45239E+01
 6.000E+00 3.09749E+01
 6.500E+00 2.93548E+01
 7.000E+00 2.85624E+01
 7.500E+00 2.82034E+01
 8.000E+00 2.63359E+01
 8.500E+00 2.22831E+01
 9.000E+00 1.75463E+01
 9.500E+00 1.33199E+01
 1.000E+01 9.91382E+00
 1.100E+01 5.74539E+00
 1.200E+01 3.91773E+00
 1.300E+01 3.09370E+00
 1.400E+01 2.69422E+00
 1.500E+01 2.48341E+00
 1.600E+01 2.35257E+00
 1.700E+01 2.29493E+00
 1.800E+01 2.21154E+00
 1.900E+01 2.13919E+00
 2.000E+01 2.08082E+00
 2.100E+01 2.03143E+00
 2.200E+01 1.97484E+00
 2.300E+01 1.92195E+00
 2.400E+01 1.86251E+00
 2.500E+01 1.80740E+00
 2.600E+01 1.74439E+00
 2.700E+01 1.69101E+00
 2.800E+01 1.64240E+00
 2.900E+01 1.60659E+00
 3.000E+01 1.56336E+00
