# n + 208Pb: Gamma-ray intensity - 208Pb: Level 15 --> Level  0 - gamma energy    4.141000
# E-initial  =   4.141000 E-final=   0.000000
# E-threshold= 4.16108E+00
# # energies = 67
#    E         xs
 1.000E-11 0.00000E+00
 2.530E-08 0.00000E+00
 2.000E-07 0.00000E+00
 1.000E-06 0.00000E+00
 1.000E-03 0.00000E+00
 2.000E-03 0.00000E+00
 5.000E-03 0.00000E+00
 1.000E-02 0.00000E+00
 2.000E-02 0.00000E+00
 5.000E-02 0.00000E+00
 1.000E-01 0.00000E+00
 2.000E-01 0.00000E+00
 3.000E-01 0.00000E+00
 4.000E-01 0.00000E+00
 5.000E-01 0.00000E+00
 7.500E-01 0.00000E+00
 1.000E+00 0.00000E+00
 1.200E+00 0.00000E+00
 1.400E+00 0.00000E+00
 1.600E+00 0.00000E+00
 1.800E+00 0.00000E+00
 2.000E+00 0.00000E+00
 2.200E+00 0.00000E+00
 2.400E+00 0.00000E+00
 2.600E+00 0.00000E+00
 2.800E+00 0.00000E+00
 3.000E+00 0.00000E+00
 3.200E+00 0.00000E+00
 3.400E+00 0.00000E+00
 3.600E+00 0.00000E+00
 3.800E+00 0.00000E+00
 4.000E+00 0.00000E+00
 4.200E+00 8.87882E+00
 4.400E+00 3.05508E+01
 4.600E+00 3.61903E+01
 4.800E+00 3.60834E+01
 5.000E+00 3.50605E+01
 5.500E+00 3.27516E+01
 6.000E+00 2.94919E+01
 6.500E+00 2.57718E+01
 7.000E+00 2.29509E+01
 7.500E+00 2.10481E+01
 8.000E+00 1.74411E+01
 8.500E+00 1.32541E+01
 9.000E+00 9.78607E+00
 9.500E+00 7.27700E+00
 1.000E+01 5.37494E+00
 1.100E+01 3.34498E+00
 1.200E+01 2.51611E+00
 1.300E+01 2.09073E+00
 1.400E+01 1.86936E+00
 1.500E+01 1.72154E+00
 1.600E+01 1.62766E+00
 1.700E+01 1.58377E+00
 1.800E+01 1.53106E+00
 1.900E+01 1.46688E+00
 2.000E+01 1.44050E+00
 2.100E+01 1.38707E+00
 2.200E+01 1.36011E+00
 2.300E+01 1.30480E+00
 2.400E+01 1.27811E+00
 2.500E+01 1.24037E+00
 2.600E+01 1.18460E+00
 2.700E+01 1.15772E+00
 2.800E+01 1.13065E+00
 2.900E+01 1.11328E+00
 3.000E+01 1.07646E+00
