# n + 208Pb: Gamma-ray intensity - 208Pb: Level 11 --> Level  1 - gamma energy    1.435950
# E-initial  =   4.050500 E-final=   2.614550
# E-threshold= 4.07014E+00
# # energies = 67
#    E         xs
 1.000E-11 0.00000E+00
 2.530E-08 0.00000E+00
 2.000E-07 0.00000E+00
 1.000E-06 0.00000E+00
 1.000E-03 0.00000E+00
 2.000E-03 0.00000E+00
 5.000E-03 0.00000E+00
 1.000E-02 0.00000E+00
 2.000E-02 0.00000E+00
 5.000E-02 0.00000E+00
 1.000E-01 0.00000E+00
 2.000E-01 0.00000E+00
 3.000E-01 0.00000E+00
 4.000E-01 0.00000E+00
 5.000E-01 0.00000E+00
 7.500E-01 0.00000E+00
 1.000E+00 0.00000E+00
 1.200E+00 0.00000E+00
 1.400E+00 0.00000E+00
 1.600E+00 0.00000E+00
 1.800E+00 0.00000E+00
 2.000E+00 0.00000E+00
 2.200E+00 0.00000E+00
 2.400E+00 0.00000E+00
 2.600E+00 0.00000E+00
 2.800E+00 0.00000E+00
 3.000E+00 0.00000E+00
 3.200E+00 0.00000E+00
 3.400E+00 0.00000E+00
 3.600E+00 0.00000E+00
 3.800E+00 0.00000E+00
 4.000E+00 0.00000E+00
 4.200E+00 5.89200E+01
 4.400E+00 8.47268E+01
 4.600E+00 8.44974E+01
 4.800E+00 7.52930E+01
 5.000E+00 6.57519E+01
 5.500E+00 5.15961E+01
 6.000E+00 4.60690E+01
 6.500E+00 4.30172E+01
 7.000E+00 4.09765E+01
 7.500E+00 3.93173E+01
 8.000E+00 3.42030E+01
 8.500E+00 2.69188E+01
 9.000E+00 2.02394E+01
 9.500E+00 1.50979E+01
 1.000E+01 1.11931E+01
 1.100E+01 6.84407E+00
 1.200E+01 5.03999E+00
 1.300E+01 4.16463E+00
 1.400E+01 3.72219E+00
 1.500E+01 3.44614E+00
 1.600E+01 3.27008E+00
 1.700E+01 3.18852E+00
 1.800E+01 3.08568E+00
 1.900E+01 2.97641E+00
 2.000E+01 2.91813E+00
 2.100E+01 2.83296E+00
 2.200E+01 2.77032E+00
 2.300E+01 2.67633E+00
 2.400E+01 2.60978E+00
 2.500E+01 2.54183E+00
 2.600E+01 2.44295E+00
 2.700E+01 2.37827E+00
 2.800E+01 2.31839E+00
 2.900E+01 2.27678E+00
 3.000E+01 2.20714E+00
