# n + 208Pb: Gamma-ray intensity - 208Pb: Level  4 --> Level  2 - gamma energy    0.510700
# E-initial  =   3.708440 E-final=   3.197740
# E-threshold= 3.72643E+00
# # energies = 67
#    E         xs
 1.000E-11 0.00000E+00
 2.530E-08 0.00000E+00
 2.000E-07 0.00000E+00
 1.000E-06 0.00000E+00
 1.000E-03 0.00000E+00
 2.000E-03 0.00000E+00
 5.000E-03 0.00000E+00
 1.000E-02 0.00000E+00
 2.000E-02 0.00000E+00
 5.000E-02 0.00000E+00
 1.000E-01 0.00000E+00
 2.000E-01 0.00000E+00
 3.000E-01 0.00000E+00
 4.000E-01 0.00000E+00
 5.000E-01 0.00000E+00
 7.500E-01 0.00000E+00
 1.000E+00 0.00000E+00
 1.200E+00 0.00000E+00
 1.400E+00 0.00000E+00
 1.600E+00 0.00000E+00
 1.800E+00 0.00000E+00
 2.000E+00 0.00000E+00
 2.200E+00 0.00000E+00
 2.400E+00 0.00000E+00
 2.600E+00 0.00000E+00
 2.800E+00 0.00000E+00
 3.000E+00 0.00000E+00
 3.200E+00 0.00000E+00
 3.400E+00 0.00000E+00
 3.600E+00 0.00000E+00
 3.800E+00 4.02003E+01
 4.000E+00 1.00647E+02
 4.200E+00 1.47780E+02
 4.400E+00 1.73195E+02
 4.600E+00 1.87092E+02
 4.800E+00 1.94768E+02
 5.000E+00 2.00134E+02
 5.500E+00 2.11885E+02
 6.000E+00 2.24121E+02
 6.500E+00 2.40148E+02
 7.000E+00 2.61237E+02
 7.500E+00 2.86583E+02
 8.000E+00 3.07827E+02
 8.500E+00 3.15193E+02
 9.000E+00 3.02201E+02
 9.500E+00 2.73087E+02
 1.000E+01 2.35341E+02
 1.100E+01 1.58936E+02
 1.200E+01 1.05095E+02
 1.300E+01 7.67245E+01
 1.400E+01 6.20255E+01
 1.500E+01 5.47646E+01
 1.600E+01 5.07456E+01
 1.700E+01 4.85209E+01
 1.800E+01 4.58934E+01
 1.900E+01 4.40406E+01
 2.000E+01 4.22017E+01
 2.100E+01 4.05414E+01
 2.200E+01 3.84637E+01
 2.300E+01 3.71716E+01
 2.400E+01 3.52910E+01
 2.500E+01 3.38635E+01
 2.600E+01 3.21119E+01
 2.700E+01 3.10425E+01
 2.800E+01 3.00843E+01
 2.900E+01 2.86979E+01
 3.000E+01 2.77238E+01
