# n + 208Pb: Gamma-ray intensity - 209Pb: Level  8 --> Level  0 - gamma energy    2.463000
# E-initial  =   2.463000 E-final=   0.000000
# E-threshold= 0.00000E+00
# # energies = 67
#    E         xs
 1.000E-11 0.00000E+00
 2.530E-08 0.00000E+00
 2.000E-07 0.00000E+00
 1.000E-06 1.03976E-02
 1.000E-03 8.39686E-03
 2.000E-03 1.13124E-02
 5.000E-03 1.37421E-02
 1.000E-02 1.07223E-02
 2.000E-02 6.72953E-03
 5.000E-02 3.64004E-03
 1.000E-01 2.69502E-03
 2.000E-01 2.78800E-03
 3.000E-01 3.00493E-03
 4.000E-01 3.14781E-03
 5.000E-01 3.30138E-03
 7.500E-01 3.85297E-03
 1.000E+00 4.65458E-03
 1.200E+00 5.49185E-03
 1.400E+00 6.55551E-03
 1.600E+00 7.80157E-03
 1.800E+00 9.35160E-03
 2.000E+00 1.12143E-02
 2.200E+00 1.34271E-02
 2.400E+00 1.60540E-02
 2.600E+00 1.93884E-02
 2.800E+00 1.36504E-02
 3.000E+00 1.28883E-02
 3.200E+00 1.35124E-02
 3.400E+00 1.26493E-02
 3.600E+00 1.24609E-02
 3.800E+00 1.21594E-02
 4.000E+00 1.22060E-02
 4.200E+00 1.07056E-02
 4.400E+00 8.46186E-03
 4.600E+00 7.30067E-03
 4.800E+00 6.51659E-03
 5.000E+00 5.71828E-03
 5.500E+00 4.78919E-03
 6.000E+00 4.03376E-03
 6.500E+00 3.86368E-03
 7.000E+00 3.78923E-03
 7.500E+00 4.21525E-03
 8.000E+00 5.01485E-03
 8.500E+00 6.17401E-03
 9.000E+00 8.41605E-03
 9.500E+00 1.19555E-02
 1.000E+01 1.63637E-02
 1.100E+01 2.21404E-02
 1.200E+01 1.71807E-02
 1.300E+01 1.06358E-02
 1.400E+01 7.78648E-03
 1.500E+01 6.29821E-03
 1.600E+01 5.26037E-03
 1.700E+01 4.51796E-03
 1.800E+01 3.74282E-03
 1.900E+01 3.43293E-03
 2.000E+01 3.25232E-03
 2.100E+01 3.07816E-03
 2.200E+01 2.88532E-03
 2.300E+01 2.83061E-03
 2.400E+01 2.76613E-03
 2.500E+01 2.71089E-03
 2.600E+01 2.71496E-03
 2.700E+01 2.64382E-03
 2.800E+01 2.45480E-03
 2.900E+01 2.47801E-03
 3.000E+01 2.53089E-03
