# n + 208Pb: Gamma-ray intensity - 208Pb: Level  5 --> Level  4 - gamma energy    0.211360
# E-initial  =   3.919800 E-final=   3.708440
# E-threshold= 3.93881E+00
# # energies = 67
#    E         xs
 1.000E-11 0.00000E+00
 2.530E-08 0.00000E+00
 2.000E-07 0.00000E+00
 1.000E-06 0.00000E+00
 1.000E-03 0.00000E+00
 2.000E-03 0.00000E+00
 5.000E-03 0.00000E+00
 1.000E-02 0.00000E+00
 2.000E-02 0.00000E+00
 5.000E-02 0.00000E+00
 1.000E-01 0.00000E+00
 2.000E-01 0.00000E+00
 3.000E-01 0.00000E+00
 4.000E-01 0.00000E+00
 5.000E-01 0.00000E+00
 7.500E-01 0.00000E+00
 1.000E+00 0.00000E+00
 1.200E+00 0.00000E+00
 1.400E+00 0.00000E+00
 1.600E+00 0.00000E+00
 1.800E+00 0.00000E+00
 2.000E+00 0.00000E+00
 2.200E+00 0.00000E+00
 2.400E+00 0.00000E+00
 2.600E+00 0.00000E+00
 2.800E+00 0.00000E+00
 3.000E+00 0.00000E+00
 3.200E+00 0.00000E+00
 3.400E+00 0.00000E+00
 3.600E+00 0.00000E+00
 3.800E+00 0.00000E+00
 4.000E+00 5.43866E+00
 4.200E+00 1.33723E+01
 4.400E+00 2.26368E+01
 4.600E+00 2.81257E+01
 4.800E+00 3.11907E+01
 5.000E+00 3.29132E+01
 5.500E+00 3.54919E+01
 6.000E+00 3.81062E+01
 6.500E+00 4.13292E+01
 7.000E+00 4.52549E+01
 7.500E+00 4.98324E+01
 8.000E+00 5.37829E+01
 8.500E+00 5.53579E+01
 9.000E+00 5.29326E+01
 9.500E+00 4.72374E+01
 1.000E+01 3.99676E+01
 1.100E+01 2.57728E+01
 1.200E+01 1.62648E+01
 1.300E+01 1.14842E+01
 1.400E+01 9.11554E+00
 1.500E+01 7.95513E+00
 1.600E+01 7.32200E+00
 1.700E+01 6.96578E+00
 1.800E+01 6.52025E+00
 1.900E+01 6.21927E+00
 2.000E+01 5.91753E+00
 2.100E+01 5.64590E+00
 2.200E+01 5.37986E+00
 2.300E+01 5.18952E+00
 2.400E+01 4.88918E+00
 2.500E+01 4.68943E+00
 2.600E+01 4.41023E+00
 2.700E+01 4.26371E+00
 2.800E+01 4.11700E+00
 2.900E+01 3.90572E+00
 3.000E+01 3.77095E+00
