# n + 208Pb: Gamma-ray intensity - 208Pb: Level  4 --> Level  3 - gamma energy    0.233373
# E-initial  =   3.708451 E-final=   3.475078
# E-threshold= 3.72644E+00
# # energies =    67
#    E           xs
 1.00000E-11 0.00000E+00
 2.53000E-08 0.00000E+00
 2.00000E-07 0.00000E+00
 1.00000E-06 0.00000E+00
 1.00000E-03 0.00000E+00
 2.00000E-03 0.00000E+00
 5.00000E-03 0.00000E+00
 1.00000E-02 0.00000E+00
 2.00000E-02 0.00000E+00
 5.00000E-02 0.00000E+00
 1.00000E-01 0.00000E+00
 2.00000E-01 0.00000E+00
 3.00000E-01 0.00000E+00
 4.00000E-01 0.00000E+00
 5.00000E-01 0.00000E+00
 7.50000E-01 0.00000E+00
 1.00000E+00 0.00000E+00
 1.20000E+00 0.00000E+00
 1.40000E+00 0.00000E+00
 1.60000E+00 0.00000E+00
 1.80000E+00 0.00000E+00
 2.00000E+00 0.00000E+00
 2.20000E+00 0.00000E+00
 2.40000E+00 0.00000E+00
 2.60000E+00 0.00000E+00
 2.80000E+00 0.00000E+00
 3.00000E+00 0.00000E+00
 3.20000E+00 0.00000E+00
 3.40000E+00 0.00000E+00
 3.60000E+00 0.00000E+00
 3.80000E+00 5.50249E-01
 4.00000E+00 1.46107E+00
 4.20000E+00 2.27085E+00
 4.40000E+00 2.78257E+00
 4.60000E+00 3.04671E+00
 4.80000E+00 3.23822E+00
 5.00000E+00 3.36363E+00
 5.50000E+00 3.48759E+00
 6.00000E+00 3.50846E+00
 6.50000E+00 3.56571E+00
 7.00000E+00 3.69160E+00
 7.50000E+00 3.86891E+00
 8.00000E+00 3.96087E+00
 8.50000E+00 3.81510E+00
 9.00000E+00 3.40361E+00
 9.50000E+00 2.84089E+00
 1.00000E+01 2.24821E+00
 1.10000E+01 1.30324E+00
 1.20000E+01 7.83594E-01
 1.30000E+01 5.46431E-01
 1.40000E+01 4.41707E-01
 1.50000E+01 3.90627E-01
 1.60000E+01 3.59800E-01
 1.70000E+01 3.41058E-01
 1.80000E+01 3.19028E-01
 1.90000E+01 3.00226E-01
 2.00000E+01 2.86389E-01
 2.10000E+01 2.72200E-01
 2.20000E+01 2.58012E-01
 2.30000E+01 2.45822E-01
 2.40000E+01 2.33213E-01
 2.50000E+01 2.17530E-01
 2.60000E+01 2.06308E-01
 2.70000E+01 1.95881E-01
 2.80000E+01 1.86650E-01
 2.90000E+01 1.79180E-01
 3.00000E+01 1.71965E-01
