# n + 208Pb: Gamma-ray intensity - 208Pb: Level 12 --> Level  6 - gamma energy    0.178770
# E-initial  =   4.125350 E-final=   3.946580
# E-threshold= 4.14536E+00
# # energies = 67
#    E         xs
 1.000E-11 0.00000E+00
 2.530E-08 0.00000E+00
 2.000E-07 0.00000E+00
 1.000E-06 0.00000E+00
 1.000E-03 0.00000E+00
 2.000E-03 0.00000E+00
 5.000E-03 0.00000E+00
 1.000E-02 0.00000E+00
 2.000E-02 0.00000E+00
 5.000E-02 0.00000E+00
 1.000E-01 0.00000E+00
 2.000E-01 0.00000E+00
 3.000E-01 0.00000E+00
 4.000E-01 0.00000E+00
 5.000E-01 0.00000E+00
 7.500E-01 0.00000E+00
 1.000E+00 0.00000E+00
 1.200E+00 0.00000E+00
 1.400E+00 0.00000E+00
 1.600E+00 0.00000E+00
 1.800E+00 0.00000E+00
 2.000E+00 0.00000E+00
 2.200E+00 0.00000E+00
 2.400E+00 0.00000E+00
 2.600E+00 0.00000E+00
 2.800E+00 0.00000E+00
 3.000E+00 0.00000E+00
 3.200E+00 0.00000E+00
 3.400E+00 0.00000E+00
 3.600E+00 0.00000E+00
 3.800E+00 0.00000E+00
 4.000E+00 0.00000E+00
 4.200E+00 1.35598E-01
 4.400E+00 3.05716E-01
 4.600E+00 4.01722E-01
 4.800E+00 4.53145E-01
 5.000E+00 4.71480E-01
 5.500E+00 4.65677E-01
 6.000E+00 4.50042E-01
 6.500E+00 4.38144E-01
 7.000E+00 4.33203E-01
 7.500E+00 4.36341E-01
 8.000E+00 4.33502E-01
 8.500E+00 4.08873E-01
 9.000E+00 3.62425E-01
 9.500E+00 3.06876E-01
 1.000E+01 2.52324E-01
 1.100E+01 1.68119E-01
 1.200E+01 1.22828E-01
 1.300E+01 1.00673E-01
 1.400E+01 8.93145E-02
 1.500E+01 8.23241E-02
 1.600E+01 7.72467E-02
 1.700E+01 7.34519E-02
 1.800E+01 6.99928E-02
 1.900E+01 6.70211E-02
 2.000E+01 6.44241E-02
 2.100E+01 6.18389E-02
 2.200E+01 5.92896E-02
 2.300E+01 5.68787E-02
 2.400E+01 5.45694E-02
 2.500E+01 5.22733E-02
 2.600E+01 5.01713E-02
 2.700E+01 4.85411E-02
 2.800E+01 4.70086E-02
 2.900E+01 4.55703E-02
 3.000E+01 4.41454E-02
