# n + 208Pb: Gamma-ray intensity - 209Pb: Level  9 --> Level  1 - gamma energy    1.712200
# E-initial  =   2.491000 E-final=   0.778800
# E-threshold= 0.00000E+00
# # energies =    67
#    E           xs
 1.00000E-11 0.00000E+00
 2.53000E-08 0.00000E+00
 2.00000E-07 0.00000E+00
 1.00000E-06 1.77351E-05
 1.00000E-03 4.18932E-05
 2.00000E-03 7.06008E-05
 5.00000E-03 9.13944E-05
 1.00000E-02 7.19406E-05
 2.00000E-02 4.55594E-05
 5.00000E-02 1.14396E-04
 1.00000E-01 1.25537E-04
 2.00000E-01 1.06645E-04
 3.00000E-01 9.82844E-05
 4.00000E-01 9.77976E-05
 5.00000E-01 1.02827E-04
 7.50000E-01 1.26679E-04
 1.00000E+00 1.58446E-04
 1.20000E+00 1.89793E-04
 1.40000E+00 2.26482E-04
 1.60000E+00 2.71241E-04
 1.80000E+00 3.24670E-04
 2.00000E+00 3.88079E-04
 2.20000E+00 4.67076E-04
 2.40000E+00 5.56528E-04
 2.60000E+00 6.62164E-04
 2.80000E+00 5.08541E-04
 3.00000E+00 4.85628E-04
 3.20000E+00 5.10101E-04
 3.40000E+00 4.94219E-04
 3.60000E+00 4.93480E-04
 3.80000E+00 4.99313E-04
 4.00000E+00 5.10620E-04
 4.20000E+00 4.62207E-04
 4.40000E+00 3.94971E-04
 4.60000E+00 3.53388E-04
 4.80000E+00 3.35318E-04
 5.00000E+00 3.09249E-04
 5.50000E+00 2.59584E-04
 6.00000E+00 2.16974E-04
 6.50000E+00 1.88710E-04
 7.00000E+00 1.71814E-04
 7.50000E+00 1.71029E-04
 8.00000E+00 1.87974E-04
 8.50000E+00 2.26077E-04
 9.00000E+00 3.00780E-04
 9.50000E+00 4.26146E-04
 1.00000E+01 5.98728E-04
 1.10000E+01 8.28201E-04
 1.20000E+01 6.50282E-04
 1.30000E+01 4.29318E-04
 1.40000E+01 3.09824E-04
 1.50000E+01 2.66720E-04
 1.60000E+01 2.24371E-04
 1.70000E+01 2.27489E-04
 1.80000E+01 2.13696E-04
 1.90000E+01 2.12435E-04
 2.00000E+01 2.08663E-04
 2.10000E+01 1.85634E-04
 2.20000E+01 1.59702E-04
 2.30000E+01 1.48297E-04
 2.40000E+01 1.19921E-04
 2.50000E+01 1.11578E-04
 2.60000E+01 9.70800E-05
 2.70000E+01 9.23916E-05
 2.80000E+01 9.10748E-05
 2.90000E+01 8.56421E-05
 3.00000E+01 8.30637E-05
