# n + 208Pb: Gamma-ray intensity - 209Pb: Level  7 --> Level  3 - gamma energy    0.856910
# E-initial  =   2.424000 E-final=   1.567090
# E-threshold= 0.00000E+00
# # energies =    67
#    E           xs
 1.00000E-11 0.00000E+00
 2.53000E-08 0.00000E+00
 2.00000E-07 0.00000E+00
 1.00000E-06 6.06446E-03
 1.00000E-03 5.93244E-03
 2.00000E-03 8.24569E-03
 5.00000E-03 1.01771E-02
 1.00000E-02 7.97094E-03
 2.00000E-02 5.00815E-03
 5.00000E-02 2.67587E-03
 1.00000E-01 1.96574E-03
 2.00000E-01 2.04043E-03
 3.00000E-01 2.19019E-03
 4.00000E-01 2.27857E-03
 5.00000E-01 2.37211E-03
 7.50000E-01 2.71684E-03
 1.00000E+00 3.23270E-03
 1.20000E+00 3.78158E-03
 1.40000E+00 4.44297E-03
 1.60000E+00 5.26486E-03
 1.80000E+00 6.25459E-03
 2.00000E+00 7.43596E-03
 2.20000E+00 8.90378E-03
 2.40000E+00 1.05909E-02
 2.60000E+00 1.25846E-02
 2.80000E+00 8.79981E-03
 3.00000E+00 8.25954E-03
 3.20000E+00 8.56389E-03
 3.40000E+00 7.99590E-03
 3.60000E+00 7.79325E-03
 3.80000E+00 7.58478E-03
 4.00000E+00 7.55306E-03
 4.20000E+00 6.72341E-03
 4.40000E+00 5.51872E-03
 4.60000E+00 4.76120E-03
 4.80000E+00 4.61137E-03
 5.00000E+00 4.26073E-03
 5.50000E+00 3.45737E-03
 6.00000E+00 3.02024E-03
 6.50000E+00 2.90472E-03
 7.00000E+00 3.13792E-03
 7.50000E+00 3.66808E-03
 8.00000E+00 4.78517E-03
 8.50000E+00 6.75856E-03
 9.00000E+00 9.99703E-03
 9.50000E+00 1.50060E-02
 1.00000E+01 2.08398E-02
 1.10000E+01 2.46344E-02
 1.20000E+01 1.78092E-02
 1.30000E+01 1.19565E-02
 1.40000E+01 9.02773E-03
 1.50000E+01 7.21398E-03
 1.60000E+01 6.02027E-03
 1.70000E+01 5.85869E-03
 1.80000E+01 5.42381E-03
 1.90000E+01 5.22510E-03
 2.00000E+01 4.95401E-03
 2.10000E+01 4.44099E-03
 2.20000E+01 3.89858E-03
 2.30000E+01 3.69570E-03
 2.40000E+01 3.17425E-03
 2.50000E+01 2.99544E-03
 2.60000E+01 2.70518E-03
 2.70000E+01 2.58721E-03
 2.80000E+01 2.50544E-03
 2.90000E+01 2.35313E-03
 3.00000E+01 2.28143E-03
