# n + 208Pb: Gamma-ray intensity - 208Pb: Level  5 --> Level  4 - gamma energy    0.211515
# E-initial  =   3.919966 E-final=   3.708451
# E-threshold= 3.93898E+00
# # energies =    67
#    E           xs
 1.00000E-11 0.00000E+00
 2.53000E-08 0.00000E+00
 2.00000E-07 0.00000E+00
 1.00000E-06 0.00000E+00
 1.00000E-03 0.00000E+00
 2.00000E-03 0.00000E+00
 5.00000E-03 0.00000E+00
 1.00000E-02 0.00000E+00
 2.00000E-02 0.00000E+00
 5.00000E-02 0.00000E+00
 1.00000E-01 0.00000E+00
 2.00000E-01 0.00000E+00
 3.00000E-01 0.00000E+00
 4.00000E-01 0.00000E+00
 5.00000E-01 0.00000E+00
 7.50000E-01 0.00000E+00
 1.00000E+00 0.00000E+00
 1.20000E+00 0.00000E+00
 1.40000E+00 0.00000E+00
 1.60000E+00 0.00000E+00
 1.80000E+00 0.00000E+00
 2.00000E+00 0.00000E+00
 2.20000E+00 0.00000E+00
 2.40000E+00 0.00000E+00
 2.60000E+00 0.00000E+00
 2.80000E+00 0.00000E+00
 3.00000E+00 0.00000E+00
 3.20000E+00 0.00000E+00
 3.40000E+00 0.00000E+00
 3.60000E+00 0.00000E+00
 3.80000E+00 0.00000E+00
 4.00000E+00 5.61164E+00
 4.20000E+00 1.19093E+01
 4.40000E+00 1.50180E+01
 4.60000E+00 1.64636E+01
 4.80000E+00 1.74668E+01
 5.00000E+00 1.87539E+01
 5.50000E+00 2.25431E+01
 6.00000E+00 2.63748E+01
 6.50000E+00 3.08480E+01
 7.00000E+00 3.60772E+01
 7.50000E+00 4.16773E+01
 8.00000E+00 4.68219E+01
 8.50000E+00 4.98458E+01
 9.00000E+00 4.86336E+01
 9.50000E+00 4.36210E+01
 1.00000E+01 3.63472E+01
 1.10000E+01 2.23232E+01
 1.20000E+01 1.32551E+01
 1.30000E+01 8.90606E+00
 1.40000E+01 6.99225E+00
 1.50000E+01 6.10962E+00
 1.60000E+01 5.63963E+00
 1.70000E+01 5.37382E+00
 1.80000E+01 5.03404E+00
 1.90000E+01 4.73635E+00
 2.00000E+01 4.55537E+00
 2.10000E+01 4.33188E+00
 2.20000E+01 4.11126E+00
 2.30000E+01 3.93109E+00
 2.40000E+01 3.73123E+00
 2.50000E+01 3.45851E+00
 2.60000E+01 3.28142E+00
 2.70000E+01 3.08142E+00
 2.80000E+01 2.92061E+00
 2.90000E+01 2.79622E+00
 3.00000E+01 2.67895E+00
