# n + 208Pb: Gamma-ray intensity - 208Pb: Level  5 --> Level  2 - gamma energy    0.722255
# E-initial  =   3.919966 E-final=   3.197711
# E-threshold= 3.93898E+00
# # energies =    67
#    E           xs
 1.00000E-11 0.00000E+00
 2.53000E-08 0.00000E+00
 2.00000E-07 0.00000E+00
 1.00000E-06 0.00000E+00
 1.00000E-03 0.00000E+00
 2.00000E-03 0.00000E+00
 5.00000E-03 0.00000E+00
 1.00000E-02 0.00000E+00
 2.00000E-02 0.00000E+00
 5.00000E-02 0.00000E+00
 1.00000E-01 0.00000E+00
 2.00000E-01 0.00000E+00
 3.00000E-01 0.00000E+00
 4.00000E-01 0.00000E+00
 5.00000E-01 0.00000E+00
 7.50000E-01 0.00000E+00
 1.00000E+00 0.00000E+00
 1.20000E+00 0.00000E+00
 1.40000E+00 0.00000E+00
 1.60000E+00 0.00000E+00
 1.80000E+00 0.00000E+00
 2.00000E+00 0.00000E+00
 2.20000E+00 0.00000E+00
 2.40000E+00 0.00000E+00
 2.60000E+00 0.00000E+00
 2.80000E+00 0.00000E+00
 3.00000E+00 0.00000E+00
 3.20000E+00 0.00000E+00
 3.40000E+00 0.00000E+00
 3.60000E+00 0.00000E+00
 3.80000E+00 0.00000E+00
 4.00000E+00 6.84260E+00
 4.20000E+00 1.45217E+01
 4.40000E+00 1.83123E+01
 4.60000E+00 2.00750E+01
 4.80000E+00 2.12983E+01
 5.00000E+00 2.28676E+01
 5.50000E+00 2.74879E+01
 6.00000E+00 3.21599E+01
 6.50000E+00 3.76140E+01
 7.00000E+00 4.39898E+01
 7.50000E+00 5.08181E+01
 8.00000E+00 5.70909E+01
 8.50000E+00 6.07777E+01
 9.00000E+00 5.92992E+01
 9.50000E+00 5.31866E+01
 1.00000E+01 4.43170E+01
 1.10000E+01 2.72171E+01
 1.20000E+01 1.61609E+01
 1.30000E+01 1.08586E+01
 1.40000E+01 8.52539E+00
 1.50000E+01 7.44935E+00
 1.60000E+01 6.87637E+00
 1.70000E+01 6.55231E+00
 1.80000E+01 6.13804E+00
 1.90000E+01 5.77464E+00
 2.00000E+01 5.55442E+00
 2.10000E+01 5.28191E+00
 2.20000E+01 5.01292E+00
 2.30000E+01 4.79324E+00
 2.40000E+01 4.54955E+00
 2.50000E+01 4.21702E+00
 2.60000E+01 4.00110E+00
 2.70000E+01 3.75722E+00
 2.80000E+01 3.56115E+00
 2.90000E+01 3.40947E+00
 3.00000E+01 3.26649E+00
