# n + 208Pb: Gamma-ray intensity - 208Pb: Level 28 --> Level  2 - gamma energy    1.500610
# E-initial  =   4.698320 E-final=   3.197710
# E-threshold= 4.72111E+00
# # energies = 67
#    E         xs
 1.000E-11 0.00000E+00
 2.530E-08 0.00000E+00
 2.000E-07 0.00000E+00
 1.000E-06 0.00000E+00
 1.000E-03 0.00000E+00
 2.000E-03 0.00000E+00
 5.000E-03 0.00000E+00
 1.000E-02 0.00000E+00
 2.000E-02 0.00000E+00
 5.000E-02 0.00000E+00
 1.000E-01 0.00000E+00
 2.000E-01 0.00000E+00
 3.000E-01 0.00000E+00
 4.000E-01 0.00000E+00
 5.000E-01 0.00000E+00
 7.500E-01 0.00000E+00
 1.000E+00 0.00000E+00
 1.200E+00 0.00000E+00
 1.400E+00 0.00000E+00
 1.600E+00 0.00000E+00
 1.800E+00 0.00000E+00
 2.000E+00 0.00000E+00
 2.200E+00 0.00000E+00
 2.400E+00 0.00000E+00
 2.600E+00 0.00000E+00
 2.800E+00 0.00000E+00
 3.000E+00 0.00000E+00
 3.200E+00 0.00000E+00
 3.400E+00 0.00000E+00
 3.600E+00 0.00000E+00
 3.800E+00 0.00000E+00
 4.000E+00 0.00000E+00
 4.200E+00 0.00000E+00
 4.400E+00 0.00000E+00
 4.600E+00 0.00000E+00
 4.800E+00 2.33664E+00
 5.000E+00 4.88943E+00
 5.500E+00 6.85311E+00
 6.000E+00 6.14893E+00
 6.500E+00 5.46908E+00
 7.000E+00 4.93680E+00
 7.500E+00 4.46124E+00
 8.000E+00 3.81774E+00
 8.500E+00 3.04912E+00
 9.000E+00 2.36036E+00
 9.500E+00 1.74634E+00
 1.000E+01 1.26298E+00
 1.100E+01 6.63381E-01
 1.200E+01 3.89188E-01
 1.300E+01 2.62792E-01
 1.400E+01 2.09488E-01
 1.500E+01 1.81909E-01
 1.600E+01 1.66672E-01
 1.700E+01 1.60026E-01
 1.800E+01 1.50435E-01
 1.900E+01 1.41646E-01
 2.000E+01 1.38111E-01
 2.100E+01 1.33700E-01
 2.200E+01 1.26962E-01
 2.300E+01 1.23687E-01
 2.400E+01 1.18972E-01
 2.500E+01 1.13011E-01
 2.600E+01 1.09391E-01
 2.700E+01 1.07130E-01
 2.800E+01 1.04523E-01
 2.900E+01 1.00906E-01
 3.000E+01 9.85498E-02
