# n + 208Pb: Gamma-ray intensity - 208Pb: Level 23 --> Level  4 - gamma energy    0.715196
# E-initial  =   4.423647 E-final=   3.708451
# E-threshold= 4.44510E+00
# # energies =    67
#    E           xs
 1.00000E-11 0.00000E+00
 2.53000E-08 0.00000E+00
 2.00000E-07 0.00000E+00
 1.00000E-06 0.00000E+00
 1.00000E-03 0.00000E+00
 2.00000E-03 0.00000E+00
 5.00000E-03 0.00000E+00
 1.00000E-02 0.00000E+00
 2.00000E-02 0.00000E+00
 5.00000E-02 0.00000E+00
 1.00000E-01 0.00000E+00
 2.00000E-01 0.00000E+00
 3.00000E-01 0.00000E+00
 4.00000E-01 0.00000E+00
 5.00000E-01 0.00000E+00
 7.50000E-01 0.00000E+00
 1.00000E+00 0.00000E+00
 1.20000E+00 0.00000E+00
 1.40000E+00 0.00000E+00
 1.60000E+00 0.00000E+00
 1.80000E+00 0.00000E+00
 2.00000E+00 0.00000E+00
 2.20000E+00 0.00000E+00
 2.40000E+00 0.00000E+00
 2.60000E+00 0.00000E+00
 2.80000E+00 0.00000E+00
 3.00000E+00 0.00000E+00
 3.20000E+00 0.00000E+00
 3.40000E+00 0.00000E+00
 3.60000E+00 0.00000E+00
 3.80000E+00 0.00000E+00
 4.00000E+00 0.00000E+00
 4.20000E+00 0.00000E+00
 4.40000E+00 0.00000E+00
 4.60000E+00 7.58621E-01
 4.80000E+00 1.59491E+00
 5.00000E+00 2.17720E+00
 5.50000E+00 3.47764E+00
 6.00000E+00 4.82541E+00
 6.50000E+00 5.74098E+00
 7.00000E+00 6.30049E+00
 7.50000E+00 6.81034E+00
 8.00000E+00 7.18957E+00
 8.50000E+00 7.16123E+00
 9.00000E+00 6.53899E+00
 9.50000E+00 5.52516E+00
 1.00000E+01 4.38743E+00
 1.10000E+01 2.51886E+00
 1.20000E+01 1.47808E+00
 1.30000E+01 1.01120E+00
 1.40000E+01 8.06121E-01
 1.50000E+01 7.09056E-01
 1.60000E+01 6.50167E-01
 1.70000E+01 6.14845E-01
 1.80000E+01 5.73067E-01
 1.90000E+01 5.37200E-01
 2.00000E+01 5.09915E-01
 2.10000E+01 4.83607E-01
 2.20000E+01 4.56701E-01
 2.30000E+01 4.33929E-01
 2.40000E+01 4.09424E-01
 2.50000E+01 3.79560E-01
 2.60000E+01 3.57277E-01
 2.70000E+01 3.37099E-01
 2.80000E+01 3.20640E-01
 2.90000E+01 3.06878E-01
 3.00000E+01 2.93566E-01
