# n + 208Pb: Gamma-ray intensity - 208Pb: Level  8 --> Level  2 - gamma energy    0.797960
# E-initial  =   3.995700 E-final=   3.197740
# E-threshold= 4.01508E+00
# # energies = 67
#    E         xs
 1.000E-11 0.00000E+00
 2.530E-08 0.00000E+00
 2.000E-07 0.00000E+00
 1.000E-06 0.00000E+00
 1.000E-03 0.00000E+00
 2.000E-03 0.00000E+00
 5.000E-03 0.00000E+00
 1.000E-02 0.00000E+00
 2.000E-02 0.00000E+00
 5.000E-02 0.00000E+00
 1.000E-01 0.00000E+00
 2.000E-01 0.00000E+00
 3.000E-01 0.00000E+00
 4.000E-01 0.00000E+00
 5.000E-01 0.00000E+00
 7.500E-01 0.00000E+00
 1.000E+00 0.00000E+00
 1.200E+00 0.00000E+00
 1.400E+00 0.00000E+00
 1.600E+00 0.00000E+00
 1.800E+00 0.00000E+00
 2.000E+00 0.00000E+00
 2.200E+00 0.00000E+00
 2.400E+00 0.00000E+00
 2.600E+00 0.00000E+00
 2.800E+00 0.00000E+00
 3.000E+00 0.00000E+00
 3.200E+00 0.00000E+00
 3.400E+00 0.00000E+00
 3.600E+00 0.00000E+00
 3.800E+00 0.00000E+00
 4.000E+00 0.00000E+00
 4.200E+00 1.05221E+01
 4.400E+00 1.43978E+01
 4.600E+00 1.62299E+01
 4.800E+00 1.67872E+01
 5.000E+00 1.67774E+01
 5.500E+00 1.61661E+01
 6.000E+00 1.55868E+01
 6.500E+00 1.52499E+01
 7.000E+00 1.52489E+01
 7.500E+00 1.55614E+01
 8.000E+00 1.55893E+01
 8.500E+00 1.47148E+01
 9.000E+00 1.28976E+01
 9.500E+00 1.07170E+01
 1.000E+01 8.54521E+00
 1.100E+01 5.15324E+00
 1.200E+01 3.29838E+00
 1.300E+01 2.40276E+00
 1.400E+01 1.97175E+00
 1.500E+01 1.74857E+00
 1.600E+01 1.61074E+00
 1.700E+01 1.52775E+00
 1.800E+01 1.43638E+00
 1.900E+01 1.36316E+00
 2.000E+01 1.30186E+00
 2.100E+01 1.24522E+00
 2.200E+01 1.19775E+00
 2.300E+01 1.14695E+00
 2.400E+01 1.09300E+00
 2.500E+01 1.04856E+00
 2.600E+01 9.98879E-01
 2.700E+01 9.63282E-01
 2.800E+01 9.23834E-01
 2.900E+01 8.97038E-01
 3.000E+01 8.60804E-01
