# n + 208Pb: Gamma-ray intensity - 208Pb: Level  4 --> Level  1 - gamma energy    1.093890
# E-initial  =   3.708440 E-final=   2.614550
# E-threshold= 3.72643E+00
# # energies = 66
#    E         xs
 1.000E-11 0.00000E+00
 2.530E-08 0.00000E+00
 1.000E-06 0.00000E+00
 1.000E-03 0.00000E+00
 2.000E-03 0.00000E+00
 5.000E-03 0.00000E+00
 1.000E-02 0.00000E+00
 2.000E-02 0.00000E+00
 5.000E-02 0.00000E+00
 1.000E-01 0.00000E+00
 2.000E-01 0.00000E+00
 3.000E-01 0.00000E+00
 4.000E-01 0.00000E+00
 5.000E-01 0.00000E+00
 7.500E-01 0.00000E+00
 1.000E+00 0.00000E+00
 1.200E+00 0.00000E+00
 1.400E+00 0.00000E+00
 1.600E+00 0.00000E+00
 1.800E+00 0.00000E+00
 2.000E+00 0.00000E+00
 2.200E+00 0.00000E+00
 2.400E+00 0.00000E+00
 2.600E+00 0.00000E+00
 2.800E+00 0.00000E+00
 3.000E+00 0.00000E+00
 3.200E+00 0.00000E+00
 3.400E+00 0.00000E+00
 3.600E+00 0.00000E+00
 3.800E+00 6.36844E-01
 4.000E+00 1.66440E+00
 4.200E+00 2.53481E+00
 4.400E+00 3.01770E+00
 4.600E+00 3.24653E+00
 4.800E+00 3.34450E+00
 5.000E+00 3.39897E+00
 5.500E+00 3.53832E+00
 6.000E+00 3.73062E+00
 6.500E+00 3.99780E+00
 7.000E+00 4.34335E+00
 7.500E+00 4.74410E+00
 8.000E+00 5.06497E+00
 8.500E+00 5.11022E+00
 9.000E+00 4.77950E+00
 9.500E+00 4.17002E+00
 1.000E+01 3.45709E+00
 1.100E+01 2.19627E+00
 1.200E+01 1.43140E+00
 1.300E+01 1.08272E+00
 1.400E+01 9.20272E-01
 1.500E+01 8.43716E-01
 1.600E+01 7.98198E-01
 1.700E+01 7.71939E-01
 1.800E+01 7.34073E-01
 1.900E+01 7.05977E-01
 2.000E+01 6.77910E-01
 2.100E+01 6.52246E-01
 2.200E+01 6.24499E-01
 2.300E+01 6.04758E-01
 2.400E+01 5.72985E-01
 2.500E+01 5.50101E-01
 2.600E+01 5.22781E-01
 2.700E+01 5.03996E-01
 2.800E+01 4.89541E-01
 2.900E+01 4.64366E-01
 3.000E+01 4.49079E-01
