# n + 208Pb: Gamma-ray intensity - 209Pb: Level  9 --> Level  0 - gamma energy    2.491000
# E-initial  =   2.491000 E-final=   0.000000
# E-threshold= 0.00000E+00
# # energies = 67
#    E         xs
 1.000E-11 0.00000E+00
 2.530E-08 0.00000E+00
 2.000E-07 0.00000E+00
 1.000E-06 4.58224E-04
 1.000E-03 1.23706E-03
 2.000E-03 2.08391E-03
 5.000E-03 2.58081E-03
 1.000E-02 1.98418E-03
 2.000E-02 1.24106E-03
 5.000E-02 3.34839E-03
 1.000E-01 3.65765E-03
 2.000E-01 3.09577E-03
 3.000E-01 2.84705E-03
 4.000E-01 2.83245E-03
 5.000E-01 2.98423E-03
 7.500E-01 3.69797E-03
 1.000E+00 4.65348E-03
 1.200E+00 5.58976E-03
 1.400E+00 6.74331E-03
 1.600E+00 8.08694E-03
 1.800E+00 9.73300E-03
 2.000E+00 1.17070E-02
 2.200E+00 1.40526E-02
 2.400E+00 1.68445E-02
 2.600E+00 2.03889E-02
 2.800E+00 1.56490E-02
 3.000E+00 1.50493E-02
 3.200E+00 1.60560E-02
 3.400E+00 1.54205E-02
 3.600E+00 1.54561E-02
 3.800E+00 1.56593E-02
 4.000E+00 1.60693E-02
 4.200E+00 1.41192E-02
 4.400E+00 1.26229E-02
 4.600E+00 1.13450E-02
 4.800E+00 1.02543E-02
 5.000E+00 9.53025E-03
 5.500E+00 8.37614E-03
 6.000E+00 7.59319E-03
 6.500E+00 7.11508E-03
 7.000E+00 7.14940E-03
 7.500E+00 7.60630E-03
 8.000E+00 8.64871E-03
 8.500E+00 1.03699E-02
 9.000E+00 1.26450E-02
 9.500E+00 1.54563E-02
 1.000E+01 1.80636E-02
 1.100E+01 1.92352E-02
 1.200E+01 1.61816E-02
 1.300E+01 1.29535E-02
 1.400E+01 1.05026E-02
 1.500E+01 8.73525E-03
 1.600E+01 7.55436E-03
 1.700E+01 6.69114E-03
 1.800E+01 6.07034E-03
 1.900E+01 5.63445E-03
 2.000E+01 5.22284E-03
 2.100E+01 5.01859E-03
 2.200E+01 4.82529E-03
 2.300E+01 4.76833E-03
 2.400E+01 4.69969E-03
 2.500E+01 4.54057E-03
 2.600E+01 4.50041E-03
 2.700E+01 4.46385E-03
 2.800E+01 4.26582E-03
 2.900E+01 4.19864E-03
 3.000E+01 4.13156E-03
