# n + 208Pb: Gamma-ray intensity - 207Pb: Level  9 --> Level  3 - gamma energy    1.546630
# E-initial  =   3.180000 E-final=   1.633370
# E-threshold= 1.05990E+01
# # energies = 67
#    E         xs
 1.000E-11 0.00000E+00
 2.530E-08 0.00000E+00
 2.000E-07 0.00000E+00
 1.000E-06 0.00000E+00
 1.000E-03 0.00000E+00
 2.000E-03 0.00000E+00
 5.000E-03 0.00000E+00
 1.000E-02 0.00000E+00
 2.000E-02 0.00000E+00
 5.000E-02 0.00000E+00
 1.000E-01 0.00000E+00
 2.000E-01 0.00000E+00
 3.000E-01 0.00000E+00
 4.000E-01 0.00000E+00
 5.000E-01 0.00000E+00
 7.500E-01 0.00000E+00
 1.000E+00 0.00000E+00
 1.200E+00 0.00000E+00
 1.400E+00 0.00000E+00
 1.600E+00 0.00000E+00
 1.800E+00 0.00000E+00
 2.000E+00 0.00000E+00
 2.200E+00 0.00000E+00
 2.400E+00 0.00000E+00
 2.600E+00 0.00000E+00
 2.800E+00 0.00000E+00
 3.000E+00 0.00000E+00
 3.200E+00 0.00000E+00
 3.400E+00 0.00000E+00
 3.600E+00 0.00000E+00
 3.800E+00 0.00000E+00
 4.000E+00 0.00000E+00
 4.200E+00 0.00000E+00
 4.400E+00 0.00000E+00
 4.600E+00 0.00000E+00
 4.800E+00 0.00000E+00
 5.000E+00 0.00000E+00
 5.500E+00 0.00000E+00
 6.000E+00 0.00000E+00
 6.500E+00 0.00000E+00
 7.000E+00 0.00000E+00
 7.500E+00 0.00000E+00
 8.000E+00 0.00000E+00
 8.500E+00 0.00000E+00
 9.000E+00 0.00000E+00
 9.500E+00 0.00000E+00
 1.000E+01 0.00000E+00
 1.100E+01 3.09566E+00
 1.200E+01 2.33863E+01
 1.300E+01 4.08770E+01
 1.400E+01 5.09352E+01
 1.500E+01 5.55320E+01
 1.600E+01 5.68183E+01
 1.700E+01 5.36958E+01
 1.800E+01 4.63424E+01
 1.900E+01 3.71829E+01
 2.000E+01 2.88862E+01
 2.100E+01 2.24965E+01
 2.200E+01 1.82649E+01
 2.300E+01 1.54740E+01
 2.400E+01 1.36994E+01
 2.500E+01 1.26781E+01
 2.600E+01 1.19455E+01
 2.700E+01 1.13119E+01
 2.800E+01 1.08929E+01
 2.900E+01 1.05043E+01
 3.000E+01 1.01730E+01
