# n + 208Pb: Gamma-ray intensity - 208Pb: Level 15 --> Level  0 - gamma energy    4.141000
# E-initial  =   4.141000 E-final=   0.000000
# E-threshold= 4.16108E+00
# # energies = 67
#    E         xs
 1.000E-11 0.00000E+00
 2.530E-08 0.00000E+00
 2.000E-07 0.00000E+00
 1.000E-06 0.00000E+00
 1.000E-03 0.00000E+00
 2.000E-03 0.00000E+00
 5.000E-03 0.00000E+00
 1.000E-02 0.00000E+00
 2.000E-02 0.00000E+00
 5.000E-02 0.00000E+00
 1.000E-01 0.00000E+00
 2.000E-01 0.00000E+00
 3.000E-01 0.00000E+00
 4.000E-01 0.00000E+00
 5.000E-01 0.00000E+00
 7.500E-01 0.00000E+00
 1.000E+00 0.00000E+00
 1.200E+00 0.00000E+00
 1.400E+00 0.00000E+00
 1.600E+00 0.00000E+00
 1.800E+00 0.00000E+00
 2.000E+00 0.00000E+00
 2.200E+00 0.00000E+00
 2.400E+00 0.00000E+00
 2.600E+00 0.00000E+00
 2.800E+00 0.00000E+00
 3.000E+00 0.00000E+00
 3.200E+00 0.00000E+00
 3.400E+00 0.00000E+00
 3.600E+00 0.00000E+00
 3.800E+00 0.00000E+00
 4.000E+00 0.00000E+00
 4.200E+00 8.88566E+00
 4.400E+00 3.19781E+01
 4.600E+00 4.18026E+01
 4.800E+00 4.54709E+01
 5.000E+00 4.71538E+01
 5.500E+00 4.97172E+01
 6.000E+00 4.94331E+01
 6.500E+00 4.55596E+01
 7.000E+00 4.10168E+01
 7.500E+00 3.75430E+01
 8.000E+00 3.25509E+01
 8.500E+00 2.67878E+01
 9.000E+00 2.12667E+01
 9.500E+00 1.65704E+01
 1.000E+01 1.25457E+01
 1.100E+01 7.41267E+00
 1.200E+01 4.98481E+00
 1.300E+01 3.79709E+00
 1.400E+01 3.25302E+00
 1.500E+01 2.88553E+00
 1.600E+01 2.65125E+00
 1.700E+01 2.53264E+00
 1.800E+01 2.38702E+00
 1.900E+01 2.23191E+00
 2.000E+01 2.17679E+00
 2.100E+01 2.04086E+00
 2.200E+01 2.01267E+00
 2.300E+01 1.88417E+00
 2.400E+01 1.83071E+00
 2.500E+01 1.76160E+00
 2.600E+01 1.64893E+00
 2.700E+01 1.59875E+00
 2.800E+01 1.55736E+00
 2.900E+01 1.53036E+00
 3.000E+01 1.46183E+00
