# n + 208Pb: Gamma-ray intensity - 208Pb: Level 19 --> Level  0 - gamma energy    4.229500
# E-initial  =   4.229500 E-final=   0.000000
# E-threshold= 4.25001E+00
# # energies = 67
#    E         xs
 1.000E-11 0.00000E+00
 2.530E-08 0.00000E+00
 2.000E-07 0.00000E+00
 1.000E-06 0.00000E+00
 1.000E-03 0.00000E+00
 2.000E-03 0.00000E+00
 5.000E-03 0.00000E+00
 1.000E-02 0.00000E+00
 2.000E-02 0.00000E+00
 5.000E-02 0.00000E+00
 1.000E-01 0.00000E+00
 2.000E-01 0.00000E+00
 3.000E-01 0.00000E+00
 4.000E-01 0.00000E+00
 5.000E-01 0.00000E+00
 7.500E-01 0.00000E+00
 1.000E+00 0.00000E+00
 1.200E+00 0.00000E+00
 1.400E+00 0.00000E+00
 1.600E+00 0.00000E+00
 1.800E+00 0.00000E+00
 2.000E+00 0.00000E+00
 2.200E+00 0.00000E+00
 2.400E+00 0.00000E+00
 2.600E+00 0.00000E+00
 2.800E+00 0.00000E+00
 3.000E+00 0.00000E+00
 3.200E+00 0.00000E+00
 3.400E+00 0.00000E+00
 3.600E+00 0.00000E+00
 3.800E+00 0.00000E+00
 4.000E+00 0.00000E+00
 4.200E+00 0.00000E+00
 4.400E+00 8.21651E+00
 4.600E+00 1.22121E+01
 4.800E+00 1.36013E+01
 5.000E+00 1.35257E+01
 5.500E+00 1.15238E+01
 6.000E+00 9.80981E+00
 6.500E+00 8.66457E+00
 7.000E+00 7.84804E+00
 7.500E+00 7.29993E+00
 8.000E+00 6.35584E+00
 8.500E+00 5.19547E+00
 9.000E+00 4.07973E+00
 9.500E+00 3.14991E+00
 1.000E+01 2.29799E+00
 1.100E+01 1.28861E+00
 1.200E+01 8.37503E-01
 1.300E+01 6.06702E-01
 1.400E+01 4.97117E-01
 1.500E+01 4.36123E-01
 1.600E+01 4.01251E-01
 1.700E+01 3.86085E-01
 1.800E+01 3.72617E-01
 1.900E+01 3.51714E-01
 2.000E+01 3.47824E-01
 2.100E+01 3.28948E-01
 2.200E+01 3.34037E-01
 2.300E+01 3.13389E-01
 2.400E+01 3.07851E-01
 2.500E+01 3.04122E-01
 2.600E+01 2.81169E-01
 2.700E+01 2.78230E-01
 2.800E+01 2.68685E-01
 2.900E+01 2.68656E-01
 3.000E+01 2.48900E-01
