# n + 208Pb: Gamma-ray intensity - 208Pb: Level 18 --> Level  4 - gamma energy    0.553420
# E-initial  =   4.261870 E-final=   3.708450
# E-threshold= 4.28254E+00
# # energies = 67
#    E         xs
 1.000E-11 0.00000E+00
 2.530E-08 0.00000E+00
 2.000E-07 0.00000E+00
 1.000E-06 0.00000E+00
 1.000E-03 0.00000E+00
 2.000E-03 0.00000E+00
 5.000E-03 0.00000E+00
 1.000E-02 0.00000E+00
 2.000E-02 0.00000E+00
 5.000E-02 0.00000E+00
 1.000E-01 0.00000E+00
 2.000E-01 0.00000E+00
 3.000E-01 0.00000E+00
 4.000E-01 0.00000E+00
 5.000E-01 0.00000E+00
 7.500E-01 0.00000E+00
 1.000E+00 0.00000E+00
 1.200E+00 0.00000E+00
 1.400E+00 0.00000E+00
 1.600E+00 0.00000E+00
 1.800E+00 0.00000E+00
 2.000E+00 0.00000E+00
 2.200E+00 0.00000E+00
 2.400E+00 0.00000E+00
 2.600E+00 0.00000E+00
 2.800E+00 0.00000E+00
 3.000E+00 0.00000E+00
 3.200E+00 0.00000E+00
 3.400E+00 0.00000E+00
 3.600E+00 0.00000E+00
 3.800E+00 0.00000E+00
 4.000E+00 0.00000E+00
 4.200E+00 0.00000E+00
 4.400E+00 7.38149E+00
 4.600E+00 1.27904E+01
 4.800E+00 1.59457E+01
 5.000E+00 1.71434E+01
 5.500E+00 1.63137E+01
 6.000E+00 1.46645E+01
 6.500E+00 1.33420E+01
 7.000E+00 1.23051E+01
 7.500E+00 1.16193E+01
 8.000E+00 1.06595E+01
 8.500E+00 9.16345E+00
 9.000E+00 7.47579E+00
 9.500E+00 5.77635E+00
 1.000E+01 4.32227E+00
 1.100E+01 2.32362E+00
 1.200E+01 1.35949E+00
 1.300E+01 9.13446E-01
 1.400E+01 7.14584E-01
 1.500E+01 6.14069E-01
 1.600E+01 5.54233E-01
 1.700E+01 5.18047E-01
 1.800E+01 4.79940E-01
 1.900E+01 4.47896E-01
 2.000E+01 4.23918E-01
 2.100E+01 4.00957E-01
 2.200E+01 3.78261E-01
 2.300E+01 3.60033E-01
 2.400E+01 3.40614E-01
 2.500E+01 3.19127E-01
 2.600E+01 2.99477E-01
 2.700E+01 2.88009E-01
 2.800E+01 2.77337E-01
 2.900E+01 2.68065E-01
 3.000E+01 2.58712E-01
