# n + 208Pb: Gamma-ray intensity - 209Pb: Level  9 --> Level  0 - gamma energy    2.491000
# E-initial  =   2.491000 E-final=   0.000000
# E-threshold= 0.00000E+00
# # energies = 66
#    E         xs
 1.000E-11 0.00000E+00
 2.530E-08 0.00000E+00
 1.000E-06 0.00000E+00
 1.000E-03 0.00000E+00
 2.000E-03 0.00000E+00
 5.000E-03 0.00000E+00
 1.000E-02 0.00000E+00
 2.000E-02 0.00000E+00
 5.000E-02 0.00000E+00
 1.000E-01 0.00000E+00
 2.000E-01 0.00000E+00
 3.000E-01 0.00000E+00
 4.000E-01 0.00000E+00
 5.000E-01 0.00000E+00
 7.500E-01 0.00000E+00
 1.000E+00 4.62402E-03
 1.200E+00 5.10797E-03
 1.400E+00 5.68006E-03
 1.600E+00 6.28795E-03
 1.800E+00 7.02205E-03
 2.000E+00 7.87628E-03
 2.200E+00 8.86807E-03
 2.400E+00 1.00367E-02
 2.600E+00 1.20429E-02
 2.800E+00 9.28468E-03
 3.000E+00 9.14433E-03
 3.200E+00 1.00335E-02
 3.400E+00 9.91957E-03
 3.600E+00 1.02403E-02
 3.800E+00 1.06897E-02
 4.000E+00 1.13089E-02
 4.200E+00 1.02480E-02
 4.400E+00 8.74523E-03
 4.600E+00 7.70347E-03
 4.800E+00 6.85974E-03
 5.000E+00 6.24578E-03
 5.500E+00 5.06898E-03
 6.000E+00 4.22911E-03
 6.500E+00 3.65449E-03
 7.000E+00 3.47812E-03
 7.500E+00 3.62163E-03
 8.000E+00 4.29227E-03
 8.500E+00 5.67559E-03
 9.000E+00 8.08816E-03
 9.500E+00 1.24450E-02
 1.000E+01 1.90626E-02
 1.100E+01 2.80840E-02
 1.200E+01 2.16735E-02
 1.300E+01 1.45374E-02
 1.400E+01 9.82466E-03
 1.500E+01 7.62898E-03
 1.600E+01 6.38592E-03
 1.700E+01 5.54394E-03
 1.800E+01 4.94087E-03
 1.900E+01 4.27095E-03
 2.000E+01 3.85669E-03
 2.100E+01 3.68931E-03
 2.200E+01 3.54905E-03
 2.300E+01 3.50137E-03
 2.400E+01 3.40781E-03
 2.500E+01 3.38528E-03
 2.600E+01 3.35860E-03
 2.700E+01 3.30074E-03
 2.800E+01 3.22400E-03
 2.900E+01 3.07290E-03
 3.000E+01 2.98146E-03
