# n + 208Pb: Gamma-ray intensity - 208Pb: Level  4 --> Level  1 - gamma energy    1.093929
# E-initial  =   3.708451 E-final=   2.614522
# E-threshold= 3.72644E+00
# # energies =    67
#    E           xs
 1.00000E-11 0.00000E+00
 2.53000E-08 0.00000E+00
 2.00000E-07 0.00000E+00
 1.00000E-06 0.00000E+00
 1.00000E-03 0.00000E+00
 2.00000E-03 0.00000E+00
 5.00000E-03 0.00000E+00
 1.00000E-02 0.00000E+00
 2.00000E-02 0.00000E+00
 5.00000E-02 0.00000E+00
 1.00000E-01 0.00000E+00
 2.00000E-01 0.00000E+00
 3.00000E-01 0.00000E+00
 4.00000E-01 0.00000E+00
 5.00000E-01 0.00000E+00
 7.50000E-01 0.00000E+00
 1.00000E+00 0.00000E+00
 1.20000E+00 0.00000E+00
 1.40000E+00 0.00000E+00
 1.60000E+00 0.00000E+00
 1.80000E+00 0.00000E+00
 2.00000E+00 0.00000E+00
 2.20000E+00 0.00000E+00
 2.40000E+00 0.00000E+00
 2.60000E+00 0.00000E+00
 2.80000E+00 0.00000E+00
 3.00000E+00 0.00000E+00
 3.20000E+00 0.00000E+00
 3.40000E+00 0.00000E+00
 3.60000E+00 0.00000E+00
 3.80000E+00 7.08049E-01
 4.00000E+00 1.88008E+00
 4.20000E+00 2.92208E+00
 4.40000E+00 3.58055E+00
 4.60000E+00 3.92044E+00
 4.80000E+00 4.16687E+00
 5.00000E+00 4.32826E+00
 5.50000E+00 4.48776E+00
 6.00000E+00 4.51462E+00
 6.50000E+00 4.58829E+00
 7.00000E+00 4.75029E+00
 7.50000E+00 4.97845E+00
 8.00000E+00 5.09678E+00
 8.50000E+00 4.90921E+00
 9.00000E+00 4.37972E+00
 9.50000E+00 3.65563E+00
 1.00000E+01 2.89298E+00
 1.10000E+01 1.67700E+00
 1.20000E+01 1.00832E+00
 1.30000E+01 7.03141E-01
 1.40000E+01 5.68383E-01
 1.50000E+01 5.02653E-01
 1.60000E+01 4.62985E-01
 1.70000E+01 4.38867E-01
 1.80000E+01 4.10519E-01
 1.90000E+01 3.86326E-01
 2.00000E+01 3.68521E-01
 2.10000E+01 3.50262E-01
 2.20000E+01 3.32006E-01
 2.30000E+01 3.16319E-01
 2.40000E+01 3.00095E-01
 2.50000E+01 2.79914E-01
 2.60000E+01 2.65474E-01
 2.70000E+01 2.52056E-01
 2.80000E+01 2.40178E-01
 2.90000E+01 2.30567E-01
 3.00000E+01 2.21281E-01
