# n + 208Pb: Gamma-ray intensity - 208Pb: Level 14 --> Level  2 - gamma energy    0.982703
# E-initial  =   4.180414 E-final=   3.197711
# E-threshold= 4.20069E+00
# # energies =    67
#    E           xs
 1.00000E-11 0.00000E+00
 2.53000E-08 0.00000E+00
 2.00000E-07 0.00000E+00
 1.00000E-06 0.00000E+00
 1.00000E-03 0.00000E+00
 2.00000E-03 0.00000E+00
 5.00000E-03 0.00000E+00
 1.00000E-02 0.00000E+00
 2.00000E-02 0.00000E+00
 5.00000E-02 0.00000E+00
 1.00000E-01 0.00000E+00
 2.00000E-01 0.00000E+00
 3.00000E-01 0.00000E+00
 4.00000E-01 0.00000E+00
 5.00000E-01 0.00000E+00
 7.50000E-01 0.00000E+00
 1.00000E+00 0.00000E+00
 1.20000E+00 0.00000E+00
 1.40000E+00 0.00000E+00
 1.60000E+00 0.00000E+00
 1.80000E+00 0.00000E+00
 2.00000E+00 0.00000E+00
 2.20000E+00 0.00000E+00
 2.40000E+00 0.00000E+00
 2.60000E+00 0.00000E+00
 2.80000E+00 0.00000E+00
 3.00000E+00 0.00000E+00
 3.20000E+00 0.00000E+00
 3.40000E+00 0.00000E+00
 3.60000E+00 0.00000E+00
 3.80000E+00 0.00000E+00
 4.00000E+00 0.00000E+00
 4.20000E+00 0.00000E+00
 4.40000E+00 3.35367E+01
 4.60000E+00 4.75485E+01
 4.80000E+00 5.52244E+01
 5.00000E+00 5.78234E+01
 5.50000E+00 5.57168E+01
 6.00000E+00 5.22501E+01
 6.50000E+00 4.97182E+01
 7.00000E+00 4.82964E+01
 7.50000E+00 4.81248E+01
 8.00000E+00 4.71848E+01
 8.50000E+00 4.31772E+01
 9.00000E+00 3.63826E+01
 9.50000E+00 2.87892E+01
 1.00000E+01 2.17759E+01
 1.10000E+01 1.18198E+01
 1.20000E+01 7.03190E+00
 1.30000E+01 4.95736E+00
 1.40000E+01 4.04875E+00
 1.50000E+01 3.59212E+00
 1.60000E+01 3.29670E+00
 1.70000E+01 3.11406E+00
 1.80000E+01 2.91058E+00
 1.90000E+01 2.74082E+00
 2.00000E+01 2.60014E+00
 2.10000E+01 2.47219E+00
 2.20000E+01 2.34428E+00
 2.30000E+01 2.22806E+00
 2.40000E+01 2.11344E+00
 2.50000E+01 1.98758E+00
 2.60000E+01 1.88171E+00
 2.70000E+01 1.80372E+00
 2.80000E+01 1.72192E+00
 2.90000E+01 1.65633E+00
 3.00000E+01 1.59146E+00
