# n + 208Pb: Gamma-ray intensity - 208Pb: Level 12 --> Level  6 - gamma energy    0.178769
# E-initial  =   4.125347 E-final=   3.946578
# E-threshold= 4.14535E+00
# # energies =    67
#    E           xs
 1.00000E-11 0.00000E+00
 2.53000E-08 0.00000E+00
 2.00000E-07 0.00000E+00
 1.00000E-06 0.00000E+00
 1.00000E-03 0.00000E+00
 2.00000E-03 0.00000E+00
 5.00000E-03 0.00000E+00
 1.00000E-02 0.00000E+00
 2.00000E-02 0.00000E+00
 5.00000E-02 0.00000E+00
 1.00000E-01 0.00000E+00
 2.00000E-01 0.00000E+00
 3.00000E-01 0.00000E+00
 4.00000E-01 0.00000E+00
 5.00000E-01 0.00000E+00
 7.50000E-01 0.00000E+00
 1.00000E+00 0.00000E+00
 1.20000E+00 0.00000E+00
 1.40000E+00 0.00000E+00
 1.60000E+00 0.00000E+00
 1.80000E+00 0.00000E+00
 2.00000E+00 0.00000E+00
 2.20000E+00 0.00000E+00
 2.40000E+00 0.00000E+00
 2.60000E+00 0.00000E+00
 2.80000E+00 0.00000E+00
 3.00000E+00 0.00000E+00
 3.20000E+00 0.00000E+00
 3.40000E+00 0.00000E+00
 3.60000E+00 0.00000E+00
 3.80000E+00 0.00000E+00
 4.00000E+00 0.00000E+00
 4.20000E+00 1.35635E-01
 4.40000E+00 3.05772E-01
 4.60000E+00 4.01901E-01
 4.80000E+00 4.53259E-01
 5.00000E+00 4.70612E-01
 5.50000E+00 4.60556E-01
 6.00000E+00 4.42938E-01
 6.50000E+00 4.31431E-01
 7.00000E+00 4.27975E-01
 7.50000E+00 4.32836E-01
 8.00000E+00 4.30013E-01
 8.50000E+00 4.01382E-01
 9.00000E+00 3.49005E-01
 9.50000E+00 2.88830E-01
 1.00000E+01 2.32181E-01
 1.10000E+01 1.50035E-01
 1.20000E+01 1.09363E-01
 1.30000E+01 9.09074E-02
 1.40000E+01 8.16860E-02
 1.50000E+01 7.58665E-02
 1.60000E+01 7.13833E-02
 1.70000E+01 6.80647E-02
 1.80000E+01 6.48862E-02
 1.90000E+01 6.21681E-02
 2.00000E+01 5.97414E-02
 2.10000E+01 5.73829E-02
 2.20000E+01 5.50039E-02
 2.30000E+01 5.27505E-02
 2.40000E+01 5.06016E-02
 2.50000E+01 4.84693E-02
 2.60000E+01 4.66250E-02
 2.70000E+01 4.50810E-02
 2.80000E+01 4.35658E-02
 2.90000E+01 4.21959E-02
 3.00000E+01 4.08484E-02
