# n + 208Pb: Gamma-ray intensity - 208Pb: Level 14 --> Level  2 - gamma energy    0.982700
# E-initial  =   4.180410 E-final=   3.197710
# E-threshold= 4.20068E+00
# # energies = 67
#    E         xs
 1.000E-11 0.00000E+00
 2.530E-08 0.00000E+00
 2.000E-07 0.00000E+00
 1.000E-06 0.00000E+00
 1.000E-03 0.00000E+00
 2.000E-03 0.00000E+00
 5.000E-03 0.00000E+00
 1.000E-02 0.00000E+00
 2.000E-02 0.00000E+00
 5.000E-02 0.00000E+00
 1.000E-01 0.00000E+00
 2.000E-01 0.00000E+00
 3.000E-01 0.00000E+00
 4.000E-01 0.00000E+00
 5.000E-01 0.00000E+00
 7.500E-01 0.00000E+00
 1.000E+00 0.00000E+00
 1.200E+00 0.00000E+00
 1.400E+00 0.00000E+00
 1.600E+00 0.00000E+00
 1.800E+00 0.00000E+00
 2.000E+00 0.00000E+00
 2.200E+00 0.00000E+00
 2.400E+00 0.00000E+00
 2.600E+00 0.00000E+00
 2.800E+00 0.00000E+00
 3.000E+00 0.00000E+00
 3.200E+00 0.00000E+00
 3.400E+00 0.00000E+00
 3.600E+00 0.00000E+00
 3.800E+00 0.00000E+00
 4.000E+00 0.00000E+00
 4.200E+00 0.00000E+00
 4.400E+00 3.37079E+01
 4.600E+00 4.76490E+01
 4.800E+00 5.52988E+01
 5.000E+00 5.80087E+01
 5.500E+00 5.65249E+01
 6.000E+00 5.33931E+01
 6.500E+00 5.08537E+01
 7.000E+00 4.92543E+01
 7.500E+00 4.88561E+01
 8.000E+00 4.79052E+01
 8.500E+00 4.43868E+01
 9.000E+00 3.83015E+01
 9.500E+00 3.12383E+01
 1.000E+01 2.44320E+01
 1.100E+01 1.41308E+01
 1.200E+01 8.71912E+00
 1.300E+01 6.16042E+00
 1.400E+01 4.97563E+00
 1.500E+01 4.36937E+00
 1.600E+01 4.00047E+00
 1.700E+01 3.75885E+00
 1.800E+01 3.52103E+00
 1.900E+01 3.31919E+00
 2.000E+01 3.15888E+00
 2.100E+01 3.00286E+00
 2.200E+01 2.85467E+00
 2.300E+01 2.71944E+00
 2.400E+01 2.58522E+00
 2.500E+01 2.44064E+00
 2.600E+01 2.30396E+00
 2.700E+01 2.21589E+00
 2.800E+01 2.13326E+00
 2.900E+01 2.05976E+00
 3.000E+01 1.98561E+00
