# n + 208Pb: Gamma-ray intensity - 208Pb: Level  4 --> Level  3 - gamma energy    0.233330
# E-initial  =   3.708440 E-final=   3.475110
# E-threshold= 3.72643E+00
# # energies = 67
#    E         xs
 1.000E-11 0.00000E+00
 2.530E-08 0.00000E+00
 2.000E-07 0.00000E+00
 1.000E-06 0.00000E+00
 1.000E-03 0.00000E+00
 2.000E-03 0.00000E+00
 5.000E-03 0.00000E+00
 1.000E-02 0.00000E+00
 2.000E-02 0.00000E+00
 5.000E-02 0.00000E+00
 1.000E-01 0.00000E+00
 2.000E-01 0.00000E+00
 3.000E-01 0.00000E+00
 4.000E-01 0.00000E+00
 5.000E-01 0.00000E+00
 7.500E-01 0.00000E+00
 1.000E+00 0.00000E+00
 1.200E+00 0.00000E+00
 1.400E+00 0.00000E+00
 1.600E+00 0.00000E+00
 1.800E+00 0.00000E+00
 2.000E+00 0.00000E+00
 2.200E+00 0.00000E+00
 2.400E+00 0.00000E+00
 2.600E+00 0.00000E+00
 2.800E+00 0.00000E+00
 3.000E+00 0.00000E+00
 3.200E+00 0.00000E+00
 3.400E+00 0.00000E+00
 3.600E+00 0.00000E+00
 3.800E+00 5.50749E-01
 4.000E+00 1.37888E+00
 4.200E+00 2.02460E+00
 4.400E+00 2.37279E+00
 4.600E+00 2.56319E+00
 4.800E+00 2.66834E+00
 5.000E+00 2.74186E+00
 5.500E+00 2.90284E+00
 6.000E+00 3.07048E+00
 6.500E+00 3.29005E+00
 7.000E+00 3.57897E+00
 7.500E+00 3.92621E+00
 8.000E+00 4.21726E+00
 8.500E+00 4.31817E+00
 9.000E+00 4.14018E+00
 9.500E+00 3.74132E+00
 1.000E+01 3.22420E+00
 1.100E+01 2.17744E+00
 1.200E+01 1.43982E+00
 1.300E+01 1.05113E+00
 1.400E+01 8.49756E-01
 1.500E+01 7.50281E-01
 1.600E+01 6.95221E-01
 1.700E+01 6.64741E-01
 1.800E+01 6.28744E-01
 1.900E+01 6.03361E-01
 2.000E+01 5.78167E-01
 2.100E+01 5.55422E-01
 2.200E+01 5.26957E-01
 2.300E+01 5.09255E-01
 2.400E+01 4.83490E-01
 2.500E+01 4.63933E-01
 2.600E+01 4.39936E-01
 2.700E+01 4.25286E-01
 2.800E+01 4.12159E-01
 2.900E+01 3.93165E-01
 3.000E+01 3.79818E-01
