# n + 208Pb: Gamma-ray intensity - 208Pb: Level  5 --> Level  4 - gamma energy    0.211360
# E-initial  =   3.919800 E-final=   3.708440
# E-threshold= 3.93881E+00
# # energies = 67
#    E         xs
 1.000E-11 0.00000E+00
 2.530E-08 0.00000E+00
 2.000E-07 0.00000E+00
 1.000E-06 0.00000E+00
 1.000E-03 0.00000E+00
 2.000E-03 0.00000E+00
 5.000E-03 0.00000E+00
 1.000E-02 0.00000E+00
 2.000E-02 0.00000E+00
 5.000E-02 0.00000E+00
 1.000E-01 0.00000E+00
 2.000E-01 0.00000E+00
 3.000E-01 0.00000E+00
 4.000E-01 0.00000E+00
 5.000E-01 0.00000E+00
 7.500E-01 0.00000E+00
 1.000E+00 0.00000E+00
 1.200E+00 0.00000E+00
 1.400E+00 0.00000E+00
 1.600E+00 0.00000E+00
 1.800E+00 0.00000E+00
 2.000E+00 0.00000E+00
 2.200E+00 0.00000E+00
 2.400E+00 0.00000E+00
 2.600E+00 0.00000E+00
 2.800E+00 0.00000E+00
 3.000E+00 0.00000E+00
 3.200E+00 0.00000E+00
 3.400E+00 0.00000E+00
 3.600E+00 0.00000E+00
 3.800E+00 0.00000E+00
 4.000E+00 1.47044E+01
 4.200E+00 3.61587E+01
 4.400E+00 5.95230E+01
 4.600E+00 6.93292E+01
 4.800E+00 7.26852E+01
 5.000E+00 7.44340E+01
 5.500E+00 8.17458E+01
 6.000E+00 9.29818E+01
 6.500E+00 1.05462E+02
 7.000E+00 1.18491E+02
 7.500E+00 1.31580E+02
 8.000E+00 1.42161E+02
 8.500E+00 1.44902E+02
 9.000E+00 1.36336E+02
 9.500E+00 1.17701E+02
 1.000E+01 9.55089E+01
 1.100E+01 5.81239E+01
 1.200E+01 3.68246E+01
 1.300E+01 2.75963E+01
 1.400E+01 2.33381E+01
 1.500E+01 2.13046E+01
 1.600E+01 2.00265E+01
 1.700E+01 1.93139E+01
 1.800E+01 1.82295E+01
 1.900E+01 1.74484E+01
 2.000E+01 1.66097E+01
 2.100E+01 1.58444E+01
 2.200E+01 1.50918E+01
 2.300E+01 1.45384E+01
 2.400E+01 1.37027E+01
 2.500E+01 1.30972E+01
 2.600E+01 1.23697E+01
 2.700E+01 1.18766E+01
 2.800E+01 1.15028E+01
 2.900E+01 1.08439E+01
 3.000E+01 1.04771E+01
