# n + 208Pb: Gamma-ray intensity - 208Pb: Level 28 --> Level 18 - gamma energy    0.436450
# E-initial  =   4.698320 E-final=   4.261870
# E-threshold= 4.72111E+00
# # energies = 67
#    E         xs
 1.000E-11 0.00000E+00
 2.530E-08 0.00000E+00
 2.000E-07 0.00000E+00
 1.000E-06 0.00000E+00
 1.000E-03 0.00000E+00
 2.000E-03 0.00000E+00
 5.000E-03 0.00000E+00
 1.000E-02 0.00000E+00
 2.000E-02 0.00000E+00
 5.000E-02 0.00000E+00
 1.000E-01 0.00000E+00
 2.000E-01 0.00000E+00
 3.000E-01 0.00000E+00
 4.000E-01 0.00000E+00
 5.000E-01 0.00000E+00
 7.500E-01 0.00000E+00
 1.000E+00 0.00000E+00
 1.200E+00 0.00000E+00
 1.400E+00 0.00000E+00
 1.600E+00 0.00000E+00
 1.800E+00 0.00000E+00
 2.000E+00 0.00000E+00
 2.200E+00 0.00000E+00
 2.400E+00 0.00000E+00
 2.600E+00 0.00000E+00
 2.800E+00 0.00000E+00
 3.000E+00 0.00000E+00
 3.200E+00 0.00000E+00
 3.400E+00 0.00000E+00
 3.600E+00 0.00000E+00
 3.800E+00 0.00000E+00
 4.000E+00 0.00000E+00
 4.200E+00 0.00000E+00
 4.400E+00 0.00000E+00
 4.600E+00 0.00000E+00
 4.800E+00 4.85819E-01
 5.000E+00 1.01658E+00
 5.500E+00 1.42486E+00
 6.000E+00 1.27845E+00
 6.500E+00 1.13710E+00
 7.000E+00 1.02643E+00
 7.500E+00 9.27554E-01
 8.000E+00 7.93760E-01
 8.500E+00 6.33956E-01
 9.000E+00 4.90753E-01
 9.500E+00 3.63089E-01
 1.000E+01 2.62590E-01
 1.100E+01 1.37926E-01
 1.200E+01 8.09176E-02
 1.300E+01 5.46381E-02
 1.400E+01 4.35556E-02
 1.500E+01 3.78213E-02
 1.600E+01 3.46534E-02
 1.700E+01 3.32716E-02
 1.800E+01 3.12775E-02
 1.900E+01 2.94503E-02
 2.000E+01 2.87152E-02
 2.100E+01 2.77980E-02
 2.200E+01 2.63971E-02
 2.300E+01 2.57163E-02
 2.400E+01 2.47360E-02
 2.500E+01 2.34965E-02
 2.600E+01 2.27440E-02
 2.700E+01 2.22739E-02
 2.800E+01 2.17318E-02
 2.900E+01 2.09797E-02
 3.000E+01 2.04899E-02
