# n + 208Pb: Gamma-ray intensity - 207Pb: Level  2 --> Level  0 - gamma energy    0.897800
# E-initial  =   0.897800 E-final=   0.000000
# E-threshold= 1.90215E+00
# # energies = 66
#    E         xs
 1.000E-11 0.00000E+00
 2.530E-08 0.00000E+00
 1.000E-06 0.00000E+00
 1.000E-03 0.00000E+00
 2.000E-03 0.00000E+00
 5.000E-03 0.00000E+00
 1.000E-02 0.00000E+00
 2.000E-02 0.00000E+00
 5.000E-02 0.00000E+00
 1.000E-01 0.00000E+00
 2.000E-01 0.00000E+00
 3.000E-01 0.00000E+00
 4.000E-01 0.00000E+00
 5.000E-01 0.00000E+00
 7.500E-01 0.00000E+00
 1.000E+00 0.00000E+00
 1.200E+00 0.00000E+00
 1.400E+00 0.00000E+00
 1.600E+00 0.00000E+00
 1.800E+00 0.00000E+00
 2.000E+00 0.00000E+00
 2.200E+00 0.00000E+00
 2.400E+00 0.00000E+00
 2.600E+00 0.00000E+00
 2.800E+00 0.00000E+00
 3.000E+00 0.00000E+00
 3.200E+00 0.00000E+00
 3.400E+00 0.00000E+00
 3.600E+00 0.00000E+00
 3.800E+00 0.00000E+00
 4.000E+00 0.00000E+00
 4.200E+00 0.00000E+00
 4.400E+00 0.00000E+00
 4.600E+00 0.00000E+00
 4.800E+00 0.00000E+00
 5.000E+00 0.00000E+00
 5.500E+00 0.00000E+00
 6.000E+00 0.00000E+00
 6.500E+00 0.00000E+00
 7.000E+00 0.00000E+00
 7.500E+00 0.00000E+00
 8.000E+00 0.00000E+00
 8.500E+00 1.36855E+00
 9.000E+00 2.62040E+01
 9.500E+00 7.54227E+01
 1.000E+01 1.29098E+02
 1.100E+01 2.17775E+02
 1.200E+01 2.54268E+02
 1.300E+01 2.44622E+02
 1.400E+01 2.17965E+02
 1.500E+01 1.91893E+02
 1.600E+01 1.60680E+02
 1.700E+01 1.25960E+02
 1.800E+01 9.39965E+01
 1.900E+01 7.07125E+01
 2.000E+01 5.51464E+01
 2.100E+01 4.47167E+01
 2.200E+01 3.84544E+01
 2.300E+01 3.43273E+01
 2.400E+01 3.12048E+01
 2.500E+01 2.90458E+01
 2.600E+01 2.72172E+01
 2.700E+01 2.53725E+01
 2.800E+01 2.40985E+01
 2.900E+01 2.34260E+01
 3.000E+01 2.23803E+01
