# n + 208Pb: Gamma-ray intensity - 209Pb: Level  8 --> Level  3 - gamma energy    0.895910
# E-initial  =   2.463000 E-final=   1.567090
# E-threshold= 0.00000E+00
# # energies =    67
#    E           xs
 1.00000E-11 0.00000E+00
 2.53000E-08 0.00000E+00
 2.00000E-07 0.00000E+00
 1.00000E-06 3.63707E-02
 1.00000E-03 7.39334E-03
 2.00000E-03 7.72554E-03
 5.00000E-03 7.59161E-03
 1.00000E-02 5.52022E-03
 2.00000E-02 3.35282E-03
 5.00000E-02 1.66561E-03
 1.00000E-01 1.08811E-03
 2.00000E-01 8.72672E-04
 3.00000E-01 8.06846E-04
 4.00000E-01 7.81030E-04
 5.00000E-01 7.81227E-04
 7.50000E-01 8.52991E-04
 1.00000E+00 9.97736E-04
 1.20000E+00 1.16179E-03
 1.40000E+00 1.35851E-03
 1.60000E+00 1.60769E-03
 1.80000E+00 1.90786E-03
 2.00000E+00 2.26558E-03
 2.20000E+00 2.72208E-03
 2.40000E+00 3.23296E-03
 2.60000E+00 3.82729E-03
 2.80000E+00 2.94291E-03
 3.00000E+00 2.83625E-03
 3.20000E+00 2.98782E-03
 3.40000E+00 3.07990E-03
 3.60000E+00 3.19094E-03
 3.80000E+00 3.21341E-03
 4.00000E+00 3.31078E-03
 4.20000E+00 3.00335E-03
 4.40000E+00 2.42388E-03
 4.60000E+00 2.07099E-03
 4.80000E+00 1.94007E-03
 5.00000E+00 1.74398E-03
 5.50000E+00 1.30213E-03
 6.00000E+00 1.04725E-03
 6.50000E+00 9.31491E-04
 7.00000E+00 9.29884E-04
 7.50000E+00 9.77772E-04
 8.00000E+00 1.16928E-03
 8.50000E+00 1.51954E-03
 9.00000E+00 2.06731E-03
 9.50000E+00 3.02734E-03
 1.00000E+01 4.39844E-03
 1.10000E+01 6.27719E-03
 1.20000E+01 4.81165E-03
 1.30000E+01 3.22939E-03
 1.40000E+01 2.32239E-03
 1.50000E+01 1.85593E-03
 1.60000E+01 1.56531E-03
 1.70000E+01 1.62133E-03
 1.80000E+01 1.52836E-03
 1.90000E+01 1.50756E-03
 2.00000E+01 1.42263E-03
 2.10000E+01 1.26688E-03
 2.20000E+01 1.09320E-03
 2.30000E+01 1.03741E-03
 2.40000E+01 8.49908E-04
 2.50000E+01 7.96910E-04
 2.60000E+01 6.99350E-04
 2.70000E+01 6.68027E-04
 2.80000E+01 6.41828E-04
 2.90000E+01 5.85257E-04
 3.00000E+01 5.67085E-04
