# n + 208Pb: Gamma-ray intensity - 208Pb: Level  7 --> Level  3 - gamma energy    0.485850
# E-initial  =   3.960960 E-final=   3.475110
# E-threshold= 3.98017E+00
# # energies = 67
#    E         xs
 1.000E-11 0.00000E+00
 2.530E-08 0.00000E+00
 2.000E-07 0.00000E+00
 1.000E-06 0.00000E+00
 1.000E-03 0.00000E+00
 2.000E-03 0.00000E+00
 5.000E-03 0.00000E+00
 1.000E-02 0.00000E+00
 2.000E-02 0.00000E+00
 5.000E-02 0.00000E+00
 1.000E-01 0.00000E+00
 2.000E-01 0.00000E+00
 3.000E-01 0.00000E+00
 4.000E-01 0.00000E+00
 5.000E-01 0.00000E+00
 7.500E-01 0.00000E+00
 1.000E+00 0.00000E+00
 1.200E+00 0.00000E+00
 1.400E+00 0.00000E+00
 1.600E+00 0.00000E+00
 1.800E+00 0.00000E+00
 2.000E+00 0.00000E+00
 2.200E+00 0.00000E+00
 2.400E+00 0.00000E+00
 2.600E+00 0.00000E+00
 2.800E+00 0.00000E+00
 3.000E+00 0.00000E+00
 3.200E+00 0.00000E+00
 3.400E+00 0.00000E+00
 3.600E+00 0.00000E+00
 3.800E+00 0.00000E+00
 4.000E+00 2.49515E-01
 4.200E+00 7.99977E-01
 4.400E+00 1.03063E+00
 4.600E+00 1.12857E+00
 4.800E+00 1.14946E+00
 5.000E+00 1.13799E+00
 5.500E+00 1.07778E+00
 6.000E+00 1.02062E+00
 6.500E+00 9.84054E-01
 7.000E+00 9.75975E-01
 7.500E+00 9.93102E-01
 8.000E+00 1.00033E+00
 8.500E+00 9.55768E-01
 9.000E+00 8.48615E-01
 9.500E+00 7.11493E-01
 1.000E+01 5.71159E-01
 1.100E+01 3.45298E-01
 1.200E+01 2.17306E-01
 1.300E+01 1.55147E-01
 1.400E+01 1.24805E-01
 1.500E+01 1.09448E-01
 1.600E+01 9.99013E-02
 1.700E+01 9.44566E-02
 1.800E+01 8.87218E-02
 1.900E+01 8.41670E-02
 2.000E+01 8.00428E-02
 2.100E+01 7.66712E-02
 2.200E+01 7.38118E-02
 2.300E+01 7.08411E-02
 2.400E+01 6.74046E-02
 2.500E+01 6.47735E-02
 2.600E+01 6.16519E-02
 2.700E+01 5.93396E-02
 2.800E+01 5.73131E-02
 2.900E+01 5.51929E-02
 3.000E+01 5.30701E-02
