# n + 208Pb: Gamma-ray intensity - 209Pb: Level  6 --> Level  4 - gamma energy    0.286780
# E-initial  =   2.319000 E-final=   2.032220
# E-threshold= 0.00000E+00
# # energies =    67
#    E           xs
 1.00000E-11 0.00000E+00
 2.53000E-08 0.00000E+00
 2.00000E-07 0.00000E+00
 1.00000E-06 7.63250E+01
 1.00000E-03 1.51375E-01
 2.00000E-03 1.00937E-01
 5.00000E-03 6.77982E-02
 1.00000E-02 4.44086E-02
 2.00000E-02 2.58829E-02
 5.00000E-02 1.23567E-02
 1.00000E-01 7.34586E-03
 2.00000E-01 4.73758E-03
 3.00000E-01 3.94798E-03
 4.00000E-01 3.65613E-03
 5.00000E-01 3.58196E-03
 7.50000E-01 3.84639E-03
 1.00000E+00 4.49183E-03
 1.20000E+00 5.23503E-03
 1.40000E+00 6.11985E-03
 1.60000E+00 7.25211E-03
 1.80000E+00 8.61153E-03
 2.00000E+00 1.02247E-02
 2.20000E+00 1.23249E-02
 2.40000E+00 1.46644E-02
 2.60000E+00 1.72899E-02
 2.80000E+00 1.58296E-02
 3.00000E+00 1.59138E-02
 3.20000E+00 1.71368E-02
 3.40000E+00 1.80888E-02
 3.60000E+00 1.94378E-02
 3.80000E+00 1.99386E-02
 4.00000E+00 2.10273E-02
 4.20000E+00 1.96099E-02
 4.40000E+00 1.58068E-02
 4.60000E+00 1.36730E-02
 4.80000E+00 1.34502E-02
 5.00000E+00 1.23752E-02
 5.50000E+00 9.76266E-03
 6.00000E+00 8.47635E-03
 6.50000E+00 8.53355E-03
 7.00000E+00 9.82233E-03
 7.50000E+00 1.23293E-02
 8.00000E+00 1.74213E-02
 8.50000E+00 2.63341E-02
 9.00000E+00 4.08500E-02
 9.50000E+00 6.24856E-02
 1.00000E+01 8.40420E-02
 1.10000E+01 8.44848E-02
 1.20000E+01 5.77111E-02
 1.30000E+01 3.90397E-02
 1.40000E+01 3.00443E-02
 1.50000E+01 2.36090E-02
 1.60000E+01 1.98865E-02
 1.70000E+01 1.85777E-02
 1.80000E+01 1.70397E-02
 1.90000E+01 1.62018E-02
 2.00000E+01 1.50012E-02
 2.10000E+01 1.35963E-02
 2.20000E+01 1.21905E-02
 2.30000E+01 1.15674E-02
 2.40000E+01 1.03917E-02
 2.50000E+01 9.88635E-03
 2.60000E+01 9.20316E-03
 2.70000E+01 8.85932E-03
 2.80000E+01 8.46499E-03
 2.90000E+01 8.01977E-03
 3.00000E+01 7.79703E-03
