# n + 208Pb: Gamma-ray intensity - 208Pb: Level 25 --> Level  4 - gamma energy    0.772295
# E-initial  =   4.480746 E-final=   3.708451
# E-threshold= 4.50248E+00
# # energies =    67
#    E           xs
 1.00000E-11 0.00000E+00
 2.53000E-08 0.00000E+00
 2.00000E-07 0.00000E+00
 1.00000E-06 0.00000E+00
 1.00000E-03 0.00000E+00
 2.00000E-03 0.00000E+00
 5.00000E-03 0.00000E+00
 1.00000E-02 0.00000E+00
 2.00000E-02 0.00000E+00
 5.00000E-02 0.00000E+00
 1.00000E-01 0.00000E+00
 2.00000E-01 0.00000E+00
 3.00000E-01 0.00000E+00
 4.00000E-01 0.00000E+00
 5.00000E-01 0.00000E+00
 7.50000E-01 0.00000E+00
 1.00000E+00 0.00000E+00
 1.20000E+00 0.00000E+00
 1.40000E+00 0.00000E+00
 1.60000E+00 0.00000E+00
 1.80000E+00 0.00000E+00
 2.00000E+00 0.00000E+00
 2.20000E+00 0.00000E+00
 2.40000E+00 0.00000E+00
 2.60000E+00 0.00000E+00
 2.80000E+00 0.00000E+00
 3.00000E+00 0.00000E+00
 3.20000E+00 0.00000E+00
 3.40000E+00 0.00000E+00
 3.60000E+00 0.00000E+00
 3.80000E+00 0.00000E+00
 4.00000E+00 0.00000E+00
 4.20000E+00 0.00000E+00
 4.40000E+00 0.00000E+00
 4.60000E+00 6.43024E-01
 4.80000E+00 1.28207E+00
 5.00000E+00 1.74458E+00
 5.50000E+00 2.15517E+00
 6.00000E+00 2.22900E+00
 6.50000E+00 2.33740E+00
 7.00000E+00 2.46696E+00
 7.50000E+00 2.62562E+00
 8.00000E+00 2.78365E+00
 8.50000E+00 2.81449E+00
 9.00000E+00 2.59502E+00
 9.50000E+00 2.20107E+00
 1.00000E+01 1.74099E+00
 1.10000E+01 9.72094E-01
 1.20000E+01 5.41521E-01
 1.30000E+01 3.49631E-01
 1.40000E+01 2.66403E-01
 1.50000E+01 2.29790E-01
 1.60000E+01 2.09909E-01
 1.70000E+01 1.98950E-01
 1.80000E+01 1.85218E-01
 1.90000E+01 1.73230E-01
 2.00000E+01 1.65281E-01
 2.10000E+01 1.57121E-01
 2.20000E+01 1.48309E-01
 2.30000E+01 1.41832E-01
 2.40000E+01 1.33953E-01
 2.50000E+01 1.25334E-01
 2.60000E+01 1.18518E-01
 2.70000E+01 1.11425E-01
 2.80000E+01 1.05539E-01
 2.90000E+01 1.01286E-01
 3.00000E+01 9.71716E-02
