# n + 208Pb: Gamma-ray intensity - 209Pb: Level  9 --> Level  1 - gamma energy    1.712200
# E-initial  =   2.491000 E-final=   0.778800
# E-threshold= 0.00000E+00
# # energies =    67
#    E           xs
 1.00000E-11 0.00000E+00
 2.53000E-08 0.00000E+00
 2.00000E-07 0.00000E+00
 1.00000E-06 1.77338E-05
 1.00000E-03 4.18924E-05
 2.00000E-03 7.05998E-05
 5.00000E-03 9.13933E-05
 1.00000E-02 7.19398E-05
 2.00000E-02 4.55588E-05
 5.00000E-02 1.14396E-04
 1.00000E-01 1.25537E-04
 2.00000E-01 1.06645E-04
 3.00000E-01 9.82841E-05
 4.00000E-01 9.77973E-05
 5.00000E-01 1.02826E-04
 7.50000E-01 1.26679E-04
 1.00000E+00 1.58445E-04
 1.20000E+00 1.89791E-04
 1.40000E+00 2.26480E-04
 1.60000E+00 2.71238E-04
 1.80000E+00 3.24666E-04
 2.00000E+00 3.88074E-04
 2.20000E+00 4.67070E-04
 2.40000E+00 5.56521E-04
 2.60000E+00 6.62155E-04
 2.80000E+00 5.08534E-04
 3.00000E+00 4.85621E-04
 3.20000E+00 5.10094E-04
 3.40000E+00 4.94213E-04
 3.60000E+00 4.93473E-04
 3.80000E+00 4.99306E-04
 4.00000E+00 5.10613E-04
 4.20000E+00 4.62202E-04
 4.40000E+00 3.94966E-04
 4.60000E+00 3.53384E-04
 4.80000E+00 3.35314E-04
 5.00000E+00 3.09247E-04
 5.50000E+00 2.59588E-04
 6.00000E+00 2.16983E-04
 6.50000E+00 1.88723E-04
 7.00000E+00 1.71829E-04
 7.50000E+00 1.71046E-04
 8.00000E+00 1.88029E-04
 8.50000E+00 2.26154E-04
 9.00000E+00 3.00873E-04
 9.50000E+00 4.26281E-04
 1.00000E+01 5.98889E-04
 1.10000E+01 8.28255E-04
 1.20000E+01 6.50286E-04
 1.30000E+01 4.29324E-04
 1.40000E+01 3.09831E-04
 1.50000E+01 2.66740E-04
 1.60000E+01 2.24391E-04
 1.70000E+01 2.27523E-04
 1.80000E+01 2.13729E-04
 1.90000E+01 2.12473E-04
 2.00000E+01 2.08693E-04
 2.10000E+01 1.85660E-04
 2.20000E+01 1.59726E-04
 2.30000E+01 1.48311E-04
 2.40000E+01 1.19933E-04
 2.50000E+01 1.11589E-04
 2.60000E+01 9.70831E-05
 2.70000E+01 9.23985E-05
 2.80000E+01 9.10808E-05
 2.90000E+01 8.56447E-05
 3.00000E+01 8.30693E-05
