# n + 208Pb: Gamma-ray intensity - 208Pb: Level  4 --> Level  1 - gamma energy    1.093929
# E-initial  =   3.708451 E-final=   2.614522
# E-threshold= 3.72644E+00
# # energies =    67
#    E           xs
 1.00000E-11 0.00000E+00
 2.53000E-08 0.00000E+00
 2.00000E-07 0.00000E+00
 1.00000E-06 0.00000E+00
 1.00000E-03 0.00000E+00
 2.00000E-03 0.00000E+00
 5.00000E-03 0.00000E+00
 1.00000E-02 0.00000E+00
 2.00000E-02 0.00000E+00
 5.00000E-02 0.00000E+00
 1.00000E-01 0.00000E+00
 2.00000E-01 0.00000E+00
 3.00000E-01 0.00000E+00
 4.00000E-01 0.00000E+00
 5.00000E-01 0.00000E+00
 7.50000E-01 0.00000E+00
 1.00000E+00 0.00000E+00
 1.20000E+00 0.00000E+00
 1.40000E+00 0.00000E+00
 1.60000E+00 0.00000E+00
 1.80000E+00 0.00000E+00
 2.00000E+00 0.00000E+00
 2.20000E+00 0.00000E+00
 2.40000E+00 0.00000E+00
 2.60000E+00 0.00000E+00
 2.80000E+00 0.00000E+00
 3.00000E+00 0.00000E+00
 3.20000E+00 0.00000E+00
 3.40000E+00 0.00000E+00
 3.60000E+00 0.00000E+00
 3.80000E+00 7.08049E-01
 4.00000E+00 1.88008E+00
 4.20000E+00 2.92208E+00
 4.40000E+00 3.58055E+00
 4.60000E+00 3.92044E+00
 4.80000E+00 4.16687E+00
 5.00000E+00 4.32826E+00
 5.50000E+00 4.48779E+00
 6.00000E+00 4.51468E+00
 6.50000E+00 4.58836E+00
 7.00000E+00 4.75036E+00
 7.50000E+00 4.97852E+00
 8.00000E+00 5.09686E+00
 8.50000E+00 4.90932E+00
 9.00000E+00 4.37986E+00
 9.50000E+00 3.65580E+00
 1.00000E+01 2.89316E+00
 1.10000E+01 1.67715E+00
 1.20000E+01 1.00841E+00
 1.30000E+01 7.03188E-01
 1.40000E+01 5.68410E-01
 1.50000E+01 5.02669E-01
 1.60000E+01 4.62996E-01
 1.70000E+01 4.38876E-01
 1.80000E+01 4.10527E-01
 1.90000E+01 3.86374E-01
 2.00000E+01 3.68527E-01
 2.10000E+01 3.50268E-01
 2.20000E+01 3.32011E-01
 2.30000E+01 3.16324E-01
 2.40000E+01 3.00100E-01
 2.50000E+01 2.79918E-01
 2.60000E+01 2.65478E-01
 2.70000E+01 2.52060E-01
 2.80000E+01 2.40182E-01
 2.90000E+01 2.30571E-01
 3.00000E+01 2.21285E-01
