# n + 208Pb: Gamma-ray intensity - 208Pb: Level  4 --> Level  3 - gamma energy    0.233330
# E-initial  =   3.708440 E-final=   3.475110
# E-threshold= 3.72643E+00
# # energies = 67
#    E         xs
 1.000E-11 0.00000E+00
 2.530E-08 0.00000E+00
 2.000E-07 0.00000E+00
 1.000E-06 0.00000E+00
 1.000E-03 0.00000E+00
 2.000E-03 0.00000E+00
 5.000E-03 0.00000E+00
 1.000E-02 0.00000E+00
 2.000E-02 0.00000E+00
 5.000E-02 0.00000E+00
 1.000E-01 0.00000E+00
 2.000E-01 0.00000E+00
 3.000E-01 0.00000E+00
 4.000E-01 0.00000E+00
 5.000E-01 0.00000E+00
 7.500E-01 0.00000E+00
 1.000E+00 0.00000E+00
 1.200E+00 0.00000E+00
 1.400E+00 0.00000E+00
 1.600E+00 0.00000E+00
 1.800E+00 0.00000E+00
 2.000E+00 0.00000E+00
 2.200E+00 0.00000E+00
 2.400E+00 0.00000E+00
 2.600E+00 0.00000E+00
 2.800E+00 0.00000E+00
 3.000E+00 0.00000E+00
 3.200E+00 0.00000E+00
 3.400E+00 0.00000E+00
 3.600E+00 0.00000E+00
 3.800E+00 1.74659E+00
 4.000E+00 4.56518E+00
 4.200E+00 6.95367E+00
 4.400E+00 8.10211E+00
 4.600E+00 8.34127E+00
 4.800E+00 8.33664E+00
 5.000E+00 8.40272E+00
 5.500E+00 9.06253E+00
 6.000E+00 1.00344E+01
 6.500E+00 1.11369E+01
 7.000E+00 1.23400E+01
 7.500E+00 1.35879E+01
 8.000E+00 1.45589E+01
 8.500E+00 1.47036E+01
 9.000E+00 1.38228E+01
 9.500E+00 1.20701E+01
 1.000E+01 9.97775E+00
 1.100E+01 6.38221E+00
 1.200E+01 4.23405E+00
 1.300E+01 3.25457E+00
 1.400E+01 2.79056E+00
 1.500E+01 2.56847E+00
 1.600E+01 2.42606E+00
 1.700E+01 2.35299E+00
 1.800E+01 2.24085E+00
 1.900E+01 2.15571E+00
 2.000E+01 2.06566E+00
 2.100E+01 1.98263E+00
 2.200E+01 1.90166E+00
 2.300E+01 1.83595E+00
 2.400E+01 1.74245E+00
 2.500E+01 1.67040E+00
 2.600E+01 1.58730E+00
 2.700E+01 1.52703E+00
 2.800E+01 1.48139E+00
 2.900E+01 1.40624E+00
 3.000E+01 1.35968E+00
