# n + 208Pb: Gamma-ray intensity - 208Pb: Level 27 --> Level  5 - gamma energy    0.760300
# E-initial  =   4.680266 E-final=   3.919966
# E-threshold= 4.70296E+00
# # energies =    67
#    E           xs
 1.00000E-11 0.00000E+00
 2.53000E-08 0.00000E+00
 2.00000E-07 0.00000E+00
 1.00000E-06 0.00000E+00
 1.00000E-03 0.00000E+00
 2.00000E-03 0.00000E+00
 5.00000E-03 0.00000E+00
 1.00000E-02 0.00000E+00
 2.00000E-02 0.00000E+00
 5.00000E-02 0.00000E+00
 1.00000E-01 0.00000E+00
 2.00000E-01 0.00000E+00
 3.00000E-01 0.00000E+00
 4.00000E-01 0.00000E+00
 5.00000E-01 0.00000E+00
 7.50000E-01 0.00000E+00
 1.00000E+00 0.00000E+00
 1.20000E+00 0.00000E+00
 1.40000E+00 0.00000E+00
 1.60000E+00 0.00000E+00
 1.80000E+00 0.00000E+00
 2.00000E+00 0.00000E+00
 2.20000E+00 0.00000E+00
 2.40000E+00 0.00000E+00
 2.60000E+00 0.00000E+00
 2.80000E+00 0.00000E+00
 3.00000E+00 0.00000E+00
 3.20000E+00 0.00000E+00
 3.40000E+00 0.00000E+00
 3.60000E+00 0.00000E+00
 3.80000E+00 0.00000E+00
 4.00000E+00 0.00000E+00
 4.20000E+00 0.00000E+00
 4.40000E+00 0.00000E+00
 4.60000E+00 0.00000E+00
 4.80000E+00 6.09973E-01
 5.00000E+00 2.55898E+00
 5.50000E+00 6.42588E+00
 6.00000E+00 8.42661E+00
 6.50000E+00 1.06584E+01
 7.00000E+00 1.31195E+01
 7.50000E+00 1.56043E+01
 8.00000E+00 1.80495E+01
 8.50000E+00 1.99622E+01
 9.00000E+00 2.02773E+01
 9.50000E+00 1.87867E+01
 1.00000E+01 1.60357E+01
 1.10000E+01 1.01742E+01
 1.20000E+01 6.11037E+00
 1.30000E+01 4.13649E+00
 1.40000E+01 3.26232E+00
 1.50000E+01 2.86864E+00
 1.60000E+01 2.66854E+00
 1.70000E+01 2.56033E+00
 1.80000E+01 2.42176E+00
 1.90000E+01 2.29714E+00
 2.00000E+01 2.22937E+00
 2.10000E+01 2.13623E+00
 2.20000E+01 2.03958E+00
 2.30000E+01 1.96778E+00
 2.40000E+01 1.88030E+00
 2.50000E+01 1.77465E+00
 2.60000E+01 1.69788E+00
 2.70000E+01 1.60459E+00
 2.80000E+01 1.52779E+00
 2.90000E+01 1.47021E+00
 3.00000E+01 1.41678E+00
