# n + 208Pb: Gamma-ray intensity - 208Pb: Level  4 --> Level  2 - gamma energy    0.510740
# E-initial  =   3.708451 E-final=   3.197711
# E-threshold= 3.72644E+00
# # energies =    67
#    E           xs
 1.00000E-11 0.00000E+00
 2.53000E-08 0.00000E+00
 2.00000E-07 0.00000E+00
 1.00000E-06 0.00000E+00
 1.00000E-03 0.00000E+00
 2.00000E-03 0.00000E+00
 5.00000E-03 0.00000E+00
 1.00000E-02 0.00000E+00
 2.00000E-02 0.00000E+00
 5.00000E-02 0.00000E+00
 1.00000E-01 0.00000E+00
 2.00000E-01 0.00000E+00
 3.00000E-01 0.00000E+00
 4.00000E-01 0.00000E+00
 5.00000E-01 0.00000E+00
 7.50000E-01 0.00000E+00
 1.00000E+00 0.00000E+00
 1.20000E+00 0.00000E+00
 1.40000E+00 0.00000E+00
 1.60000E+00 0.00000E+00
 1.80000E+00 0.00000E+00
 2.00000E+00 0.00000E+00
 2.20000E+00 0.00000E+00
 2.40000E+00 0.00000E+00
 2.60000E+00 0.00000E+00
 2.80000E+00 0.00000E+00
 3.00000E+00 0.00000E+00
 3.20000E+00 0.00000E+00
 3.40000E+00 0.00000E+00
 3.60000E+00 0.00000E+00
 3.80000E+00 4.04593E+01
 4.00000E+00 1.07431E+02
 4.20000E+00 1.66973E+02
 4.40000E+00 2.04600E+02
 4.60000E+00 2.24022E+02
 4.80000E+00 2.38103E+02
 5.00000E+00 2.47325E+02
 5.50000E+00 2.56439E+02
 6.00000E+00 2.57974E+02
 6.50000E+00 2.62184E+02
 7.00000E+00 2.71441E+02
 7.50000E+00 2.84478E+02
 8.00000E+00 2.91240E+02
 8.50000E+00 2.80522E+02
 9.00000E+00 2.50265E+02
 9.50000E+00 2.08889E+02
 1.00000E+01 1.65310E+02
 1.10000E+01 9.58270E+01
 1.20000E+01 5.76175E+01
 1.30000E+01 4.01788E+01
 1.40000E+01 3.24785E+01
 1.50000E+01 2.87226E+01
 1.60000E+01 2.64558E+01
 1.70000E+01 2.50777E+01
 1.80000E+01 2.34579E+01
 1.90000E+01 2.20754E+01
 2.00000E+01 2.10580E+01
 2.10000E+01 2.00147E+01
 2.20000E+01 1.89714E+01
 2.30000E+01 1.80751E+01
 2.40000E+01 1.71480E+01
 2.50000E+01 1.59948E+01
 2.60000E+01 1.51697E+01
 2.70000E+01 1.44030E+01
 2.80000E+01 1.37243E+01
 2.90000E+01 1.31750E+01
 3.00000E+01 1.26444E+01
