# n + 208Pb: Gamma-ray intensity - 208Pb: Level 18 --> Level  2 - gamma energy    1.007660
# E-initial  =   4.205400 E-final=   3.197740
# E-threshold= 4.22580E+00
# # energies = 67
#    E         xs
 1.000E-11 0.00000E+00
 2.530E-08 0.00000E+00
 2.000E-07 0.00000E+00
 1.000E-06 0.00000E+00
 1.000E-03 0.00000E+00
 2.000E-03 0.00000E+00
 5.000E-03 0.00000E+00
 1.000E-02 0.00000E+00
 2.000E-02 0.00000E+00
 5.000E-02 0.00000E+00
 1.000E-01 0.00000E+00
 2.000E-01 0.00000E+00
 3.000E-01 0.00000E+00
 4.000E-01 0.00000E+00
 5.000E-01 0.00000E+00
 7.500E-01 0.00000E+00
 1.000E+00 0.00000E+00
 1.200E+00 0.00000E+00
 1.400E+00 0.00000E+00
 1.600E+00 0.00000E+00
 1.800E+00 0.00000E+00
 2.000E+00 0.00000E+00
 2.200E+00 0.00000E+00
 2.400E+00 0.00000E+00
 2.600E+00 0.00000E+00
 2.800E+00 0.00000E+00
 3.000E+00 0.00000E+00
 3.200E+00 0.00000E+00
 3.400E+00 0.00000E+00
 3.600E+00 0.00000E+00
 3.800E+00 0.00000E+00
 4.000E+00 0.00000E+00
 4.200E+00 0.00000E+00
 4.400E+00 1.69677E+01
 4.600E+00 2.60817E+01
 4.800E+00 3.18742E+01
 5.000E+00 3.50119E+01
 5.500E+00 3.79392E+01
 6.000E+00 4.01668E+01
 6.500E+00 4.32530E+01
 7.000E+00 4.70199E+01
 7.500E+00 5.15625E+01
 8.000E+00 5.58244E+01
 8.500E+00 5.76884E+01
 9.000E+00 5.49456E+01
 9.500E+00 4.85845E+01
 1.000E+01 4.06506E+01
 1.100E+01 2.55423E+01
 1.200E+01 1.57136E+01
 1.300E+01 1.08445E+01
 1.400E+01 8.47809E+00
 1.500E+01 7.33805E+00
 1.600E+01 6.75075E+00
 1.700E+01 6.44449E+00
 1.800E+01 6.03816E+00
 1.900E+01 5.77915E+00
 2.000E+01 5.52301E+00
 2.100E+01 5.29430E+00
 2.200E+01 5.08499E+00
 2.300E+01 4.93081E+00
 2.400E+01 4.66677E+00
 2.500E+01 4.52581E+00
 2.600E+01 4.26678E+00
 2.700E+01 4.14855E+00
 2.800E+01 4.00625E+00
 2.900E+01 3.81732E+00
 3.000E+01 3.69746E+00
