# n + 208Pb: Gamma-ray intensity - 208Pb: Level 28 --> Level  2 - gamma energy    1.500612
# E-initial  =   4.698323 E-final=   3.197711
# E-threshold= 4.72111E+00
# # energies =    67
#    E           xs
 1.00000E-11 0.00000E+00
 2.53000E-08 0.00000E+00
 2.00000E-07 0.00000E+00
 1.00000E-06 0.00000E+00
 1.00000E-03 0.00000E+00
 2.00000E-03 0.00000E+00
 5.00000E-03 0.00000E+00
 1.00000E-02 0.00000E+00
 2.00000E-02 0.00000E+00
 5.00000E-02 0.00000E+00
 1.00000E-01 0.00000E+00
 2.00000E-01 0.00000E+00
 3.00000E-01 0.00000E+00
 4.00000E-01 0.00000E+00
 5.00000E-01 0.00000E+00
 7.50000E-01 0.00000E+00
 1.00000E+00 0.00000E+00
 1.20000E+00 0.00000E+00
 1.40000E+00 0.00000E+00
 1.60000E+00 0.00000E+00
 1.80000E+00 0.00000E+00
 2.00000E+00 0.00000E+00
 2.20000E+00 0.00000E+00
 2.40000E+00 0.00000E+00
 2.60000E+00 0.00000E+00
 2.80000E+00 0.00000E+00
 3.00000E+00 0.00000E+00
 3.20000E+00 0.00000E+00
 3.40000E+00 0.00000E+00
 3.60000E+00 0.00000E+00
 3.80000E+00 0.00000E+00
 4.00000E+00 0.00000E+00
 4.20000E+00 0.00000E+00
 4.40000E+00 0.00000E+00
 4.60000E+00 0.00000E+00
 4.80000E+00 2.33580E+00
 5.00000E+00 4.92752E+00
 5.50000E+00 6.78800E+00
 6.00000E+00 6.00476E+00
 6.50000E+00 5.31319E+00
 7.00000E+00 4.80659E+00
 7.50000E+00 4.37681E+00
 8.00000E+00 3.74892E+00
 8.50000E+00 2.97229E+00
 9.00000E+00 2.28913E+00
 9.50000E+00 1.69779E+00
 1.00000E+01 1.25039E+00
 1.10000E+01 7.20070E-01
 1.20000E+01 4.90537E-01
 1.30000E+01 3.89497E-01
 1.40000E+01 3.45265E-01
 1.50000E+01 3.18655E-01
 1.60000E+01 2.98016E-01
 1.70000E+01 2.87400E-01
 1.80000E+01 2.73687E-01
 1.90000E+01 2.62632E-01
 2.00000E+01 2.55243E-01
 2.10000E+01 2.48465E-01
 2.20000E+01 2.37927E-01
 2.30000E+01 2.30905E-01
 2.40000E+01 2.22976E-01
 2.50000E+01 2.13282E-01
 2.60000E+01 2.06993E-01
 2.70000E+01 2.02430E-01
 2.80000E+01 1.95975E-01
 2.90000E+01 1.89820E-01
 3.00000E+01 1.85233E-01
