# n + 208Pb: Gamma-ray intensity - 208Pb: Level 15 --> Level  2 - gamma energy    1.008566
# E-initial  =   4.206277 E-final=   3.197711
# E-threshold= 4.22668E+00
# # energies =    67
#    E           xs
 1.00000E-11 0.00000E+00
 2.53000E-08 0.00000E+00
 2.00000E-07 0.00000E+00
 1.00000E-06 0.00000E+00
 1.00000E-03 0.00000E+00
 2.00000E-03 0.00000E+00
 5.00000E-03 0.00000E+00
 1.00000E-02 0.00000E+00
 2.00000E-02 0.00000E+00
 5.00000E-02 0.00000E+00
 1.00000E-01 0.00000E+00
 2.00000E-01 0.00000E+00
 3.00000E-01 0.00000E+00
 4.00000E-01 0.00000E+00
 5.00000E-01 0.00000E+00
 7.50000E-01 0.00000E+00
 1.00000E+00 0.00000E+00
 1.20000E+00 0.00000E+00
 1.40000E+00 0.00000E+00
 1.60000E+00 0.00000E+00
 1.80000E+00 0.00000E+00
 2.00000E+00 0.00000E+00
 2.20000E+00 0.00000E+00
 2.40000E+00 0.00000E+00
 2.60000E+00 0.00000E+00
 2.80000E+00 0.00000E+00
 3.00000E+00 0.00000E+00
 3.20000E+00 0.00000E+00
 3.40000E+00 0.00000E+00
 3.60000E+00 0.00000E+00
 3.80000E+00 0.00000E+00
 4.00000E+00 0.00000E+00
 4.20000E+00 0.00000E+00
 4.40000E+00 1.47229E+01
 4.60000E+00 2.19931E+01
 4.80000E+00 2.71145E+01
 5.00000E+00 3.04388E+01
 5.50000E+00 3.44643E+01
 6.00000E+00 3.73108E+01
 6.50000E+00 4.07383E+01
 7.00000E+00 4.47830E+01
 7.50000E+00 4.94199E+01
 8.00000E+00 5.37176E+01
 8.50000E+00 5.53885E+01
 9.00000E+00 5.21001E+01
 9.50000E+00 4.50481E+01
 1.00000E+01 3.62770E+01
 1.10000E+01 2.09424E+01
 1.20000E+01 1.19544E+01
 1.30000E+01 7.85977E+00
 1.40000E+01 6.07694E+00
 1.50000E+01 5.27503E+00
 1.60000E+01 4.83557E+00
 1.70000E+01 4.58503E+00
 1.80000E+01 4.27242E+00
 1.90000E+01 3.99948E+00
 2.00000E+01 3.82231E+00
 2.10000E+01 3.62775E+00
 2.20000E+01 3.42629E+00
 2.30000E+01 3.27082E+00
 2.40000E+01 3.09179E+00
 2.50000E+01 2.87490E+00
 2.60000E+01 2.71935E+00
 2.70000E+01 2.55226E+00
 2.80000E+01 2.42014E+00
 2.90000E+01 2.31979E+00
 3.00000E+01 2.22349E+00
