# n + 208Pb: Gamma-ray intensity - 208Pb: Level 18 --> Level  2 - gamma energy    1.007660
# E-initial  =   4.205400 E-final=   3.197740
# E-threshold= 4.22580E+00
# # energies = 67
#    E         xs
 1.000E-11 0.00000E+00
 2.530E-08 0.00000E+00
 2.000E-07 0.00000E+00
 1.000E-06 0.00000E+00
 1.000E-03 0.00000E+00
 2.000E-03 0.00000E+00
 5.000E-03 0.00000E+00
 1.000E-02 0.00000E+00
 2.000E-02 0.00000E+00
 5.000E-02 0.00000E+00
 1.000E-01 0.00000E+00
 2.000E-01 0.00000E+00
 3.000E-01 0.00000E+00
 4.000E-01 0.00000E+00
 5.000E-01 0.00000E+00
 7.500E-01 0.00000E+00
 1.000E+00 0.00000E+00
 1.200E+00 0.00000E+00
 1.400E+00 0.00000E+00
 1.600E+00 0.00000E+00
 1.800E+00 0.00000E+00
 2.000E+00 0.00000E+00
 2.200E+00 0.00000E+00
 2.400E+00 0.00000E+00
 2.600E+00 0.00000E+00
 2.800E+00 0.00000E+00
 3.000E+00 0.00000E+00
 3.200E+00 0.00000E+00
 3.400E+00 0.00000E+00
 3.600E+00 0.00000E+00
 3.800E+00 0.00000E+00
 4.000E+00 0.00000E+00
 4.200E+00 0.00000E+00
 4.400E+00 1.70733E+01
 4.600E+00 2.62314E+01
 4.800E+00 3.20053E+01
 5.000E+00 3.50365E+01
 5.500E+00 3.73483E+01
 6.000E+00 3.87318E+01
 6.500E+00 4.09656E+01
 7.000E+00 4.39670E+01
 7.500E+00 4.78940E+01
 8.000E+00 5.18940E+01
 8.500E+00 5.42135E+01
 9.000E+00 5.25496E+01
 9.500E+00 4.71229E+01
 1.000E+01 3.98427E+01
 1.100E+01 2.53634E+01
 1.200E+01 1.55324E+01
 1.300E+01 1.06009E+01
 1.400E+01 8.13447E+00
 1.500E+01 6.96493E+00
 1.600E+01 6.35452E+00
 1.700E+01 6.05978E+00
 1.800E+01 5.66758E+00
 1.900E+01 5.44333E+00
 2.000E+01 5.18682E+00
 2.100E+01 4.96145E+00
 2.200E+01 4.78197E+00
 2.300E+01 4.66047E+00
 2.400E+01 4.40241E+00
 2.500E+01 4.28751E+00
 2.600E+01 4.03864E+00
 2.700E+01 3.92526E+00
 2.800E+01 3.83128E+00
 2.900E+01 3.60944E+00
 3.000E+01 3.52346E+00
