# n + 208Pb: Gamma-ray intensity - 209Pb: Level  8 --> Level  0 - gamma energy    2.463000
# E-initial  =   2.463000 E-final=   0.000000
# E-threshold= 0.00000E+00
# # energies = 66
#    E         xs
 1.000E-11 0.00000E+00
 2.530E-08 0.00000E+00
 1.000E-06 0.00000E+00
 1.000E-03 0.00000E+00
 2.000E-03 0.00000E+00
 5.000E-03 0.00000E+00
 1.000E-02 0.00000E+00
 2.000E-02 0.00000E+00
 5.000E-02 0.00000E+00
 1.000E-01 0.00000E+00
 2.000E-01 0.00000E+00
 3.000E-01 0.00000E+00
 4.000E-01 0.00000E+00
 5.000E-01 0.00000E+00
 7.500E-01 0.00000E+00
 1.000E+00 4.75481E-03
 1.200E+00 5.16997E-03
 1.400E+00 5.70287E-03
 1.600E+00 6.28224E-03
 1.800E+00 7.00018E-03
 2.000E+00 7.83940E-03
 2.200E+00 8.80897E-03
 2.400E+00 9.94802E-03
 2.600E+00 1.19071E-02
 2.800E+00 8.66202E-03
 3.000E+00 8.27905E-03
 3.200E+00 8.76189E-03
 3.400E+00 8.31428E-03
 3.600E+00 8.29122E-03
 3.800E+00 8.32493E-03
 4.000E+00 8.56179E-03
 4.200E+00 7.69847E-03
 4.400E+00 6.27374E-03
 4.600E+00 5.43281E-03
 4.800E+00 4.84687E-03
 5.000E+00 4.25962E-03
 5.500E+00 3.50908E-03
 6.000E+00 2.94068E-03
 6.500E+00 2.82091E-03
 7.000E+00 2.81230E-03
 7.500E+00 3.23971E-03
 8.000E+00 4.06091E-03
 8.500E+00 5.37455E-03
 9.000E+00 7.96190E-03
 9.500E+00 1.23320E-02
 1.000E+01 1.85121E-02
 1.100E+01 2.88866E-02
 1.200E+01 2.33460E-02
 1.300E+01 1.37966E-02
 1.400E+01 9.70502E-03
 1.500E+01 7.57344E-03
 1.600E+01 6.17416E-03
 1.700E+01 5.27086E-03
 1.800E+01 4.26879E-03
 1.900E+01 3.88144E-03
 2.000E+01 3.64603E-03
 2.100E+01 3.43250E-03
 2.200E+01 3.25158E-03
 2.300E+01 3.16269E-03
 2.400E+01 3.05742E-03
 2.500E+01 3.03419E-03
 2.600E+01 3.02359E-03
 2.700E+01 2.88397E-03
 2.800E+01 2.64291E-03
 2.900E+01 2.65842E-03
 3.000E+01 2.69031E-03
