# n + 208Pb: Gamma-ray intensity - 208Pb: Level  4 --> Level  2 - gamma energy    0.510700
# E-initial  =   3.708440 E-final=   3.197740
# E-threshold= 3.72643E+00
# # energies = 67
#    E         xs
 1.000E-11 0.00000E+00
 2.530E-08 0.00000E+00
 2.000E-07 0.00000E+00
 1.000E-06 0.00000E+00
 1.000E-03 0.00000E+00
 2.000E-03 0.00000E+00
 5.000E-03 0.00000E+00
 1.000E-02 0.00000E+00
 2.000E-02 0.00000E+00
 5.000E-02 0.00000E+00
 1.000E-01 0.00000E+00
 2.000E-01 0.00000E+00
 3.000E-01 0.00000E+00
 4.000E-01 0.00000E+00
 5.000E-01 0.00000E+00
 7.500E-01 0.00000E+00
 1.000E+00 0.00000E+00
 1.200E+00 0.00000E+00
 1.400E+00 0.00000E+00
 1.600E+00 0.00000E+00
 1.800E+00 0.00000E+00
 2.000E+00 0.00000E+00
 2.200E+00 0.00000E+00
 2.400E+00 0.00000E+00
 2.600E+00 0.00000E+00
 2.800E+00 0.00000E+00
 3.000E+00 0.00000E+00
 3.200E+00 0.00000E+00
 3.400E+00 0.00000E+00
 3.600E+00 0.00000E+00
 3.800E+00 4.38293E+01
 4.000E+00 1.14559E+02
 4.200E+00 1.74497E+02
 4.400E+00 2.03316E+02
 4.600E+00 2.09317E+02
 4.800E+00 2.09201E+02
 5.000E+00 2.10859E+02
 5.500E+00 2.27417E+02
 6.000E+00 2.51805E+02
 6.500E+00 2.79472E+02
 7.000E+00 3.09662E+02
 7.500E+00 3.40978E+02
 8.000E+00 3.65344E+02
 8.500E+00 3.68975E+02
 9.000E+00 3.46872E+02
 9.500E+00 3.02888E+02
 1.000E+01 2.50384E+02
 1.100E+01 1.60156E+02
 1.200E+01 1.06250E+02
 1.300E+01 8.16708E+01
 1.400E+01 7.00267E+01
 1.500E+01 6.44538E+01
 1.600E+01 6.08800E+01
 1.700E+01 5.90463E+01
 1.800E+01 5.62324E+01
 1.900E+01 5.40958E+01
 2.000E+01 5.18360E+01
 2.100E+01 4.97524E+01
 2.200E+01 4.77205E+01
 2.300E+01 4.60718E+01
 2.400E+01 4.37254E+01
 2.500E+01 4.19173E+01
 2.600E+01 3.98321E+01
 2.700E+01 3.83195E+01
 2.800E+01 3.71742E+01
 2.900E+01 3.52885E+01
 3.000E+01 3.41200E+01
