# n + 208Pb: Gamma-ray intensity - 207Pb: Level  2 --> Level  1 - gamma energy    0.328097
# E-initial  =   0.897800 E-final=   0.569703
# E-threshold= 8.30576E+00
# # energies = 67
#    E         xs
 1.000E-11 0.00000E+00
 2.530E-08 0.00000E+00
 2.000E-07 0.00000E+00
 1.000E-06 0.00000E+00
 1.000E-03 0.00000E+00
 2.000E-03 0.00000E+00
 5.000E-03 0.00000E+00
 1.000E-02 0.00000E+00
 2.000E-02 0.00000E+00
 5.000E-02 0.00000E+00
 1.000E-01 0.00000E+00
 2.000E-01 0.00000E+00
 3.000E-01 0.00000E+00
 4.000E-01 0.00000E+00
 5.000E-01 0.00000E+00
 7.500E-01 0.00000E+00
 1.000E+00 0.00000E+00
 1.200E+00 0.00000E+00
 1.400E+00 0.00000E+00
 1.600E+00 0.00000E+00
 1.800E+00 0.00000E+00
 2.000E+00 0.00000E+00
 2.200E+00 0.00000E+00
 2.400E+00 0.00000E+00
 2.600E+00 0.00000E+00
 2.800E+00 0.00000E+00
 3.000E+00 0.00000E+00
 3.200E+00 0.00000E+00
 3.400E+00 0.00000E+00
 3.600E+00 0.00000E+00
 3.800E+00 0.00000E+00
 4.000E+00 0.00000E+00
 4.200E+00 0.00000E+00
 4.400E+00 0.00000E+00
 4.600E+00 0.00000E+00
 4.800E+00 0.00000E+00
 5.000E+00 0.00000E+00
 5.500E+00 0.00000E+00
 6.000E+00 0.00000E+00
 6.500E+00 0.00000E+00
 7.000E+00 0.00000E+00
 7.500E+00 0.00000E+00
 8.000E+00 0.00000E+00
 8.500E+00 5.07103E-03
 9.000E+00 1.03264E-01
 9.500E+00 3.11313E-01
 1.000E+01 5.54823E-01
 1.100E+01 1.00233E+00
 1.200E+01 1.22515E+00
 1.300E+01 1.21912E+00
 1.400E+01 1.11228E+00
 1.500E+01 9.99715E-01
 1.600E+01 8.76650E-01
 1.700E+01 7.41710E-01
 1.800E+01 6.11388E-01
 1.900E+01 4.99023E-01
 2.000E+01 4.06171E-01
 2.100E+01 3.30739E-01
 2.200E+01 2.78237E-01
 2.300E+01 2.42214E-01
 2.400E+01 2.16457E-01
 2.500E+01 1.99153E-01
 2.600E+01 1.86622E-01
 2.700E+01 1.74951E-01
 2.800E+01 1.67975E-01
 2.900E+01 1.59300E-01
 3.000E+01 1.53277E-01
