# n + 208Pb: Gamma-ray intensity - 208Pb: Level 23 --> Level  2 - gamma energy    1.225936
# E-initial  =   4.423647 E-final=   3.197711
# E-threshold= 4.44510E+00
# # energies =    67
#    E           xs
 1.00000E-11 0.00000E+00
 2.53000E-08 0.00000E+00
 2.00000E-07 0.00000E+00
 1.00000E-06 0.00000E+00
 1.00000E-03 0.00000E+00
 2.00000E-03 0.00000E+00
 5.00000E-03 0.00000E+00
 1.00000E-02 0.00000E+00
 2.00000E-02 0.00000E+00
 5.00000E-02 0.00000E+00
 1.00000E-01 0.00000E+00
 2.00000E-01 0.00000E+00
 3.00000E-01 0.00000E+00
 4.00000E-01 0.00000E+00
 5.00000E-01 0.00000E+00
 7.50000E-01 0.00000E+00
 1.00000E+00 0.00000E+00
 1.20000E+00 0.00000E+00
 1.40000E+00 0.00000E+00
 1.60000E+00 0.00000E+00
 1.80000E+00 0.00000E+00
 2.00000E+00 0.00000E+00
 2.20000E+00 0.00000E+00
 2.40000E+00 0.00000E+00
 2.60000E+00 0.00000E+00
 2.80000E+00 0.00000E+00
 3.00000E+00 0.00000E+00
 3.20000E+00 0.00000E+00
 3.40000E+00 0.00000E+00
 3.60000E+00 0.00000E+00
 3.80000E+00 0.00000E+00
 4.00000E+00 0.00000E+00
 4.20000E+00 0.00000E+00
 4.40000E+00 0.00000E+00
 4.60000E+00 8.82068E+00
 4.80000E+00 1.85444E+01
 5.00000E+00 2.53148E+01
 5.50000E+00 4.04354E+01
 6.00000E+00 5.61062E+01
 6.50000E+00 6.67518E+01
 7.00000E+00 7.32574E+01
 7.50000E+00 7.91856E+01
 8.00000E+00 8.35949E+01
 8.50000E+00 8.32654E+01
 9.00000E+00 7.60304E+01
 9.50000E+00 6.42425E+01
 1.00000E+01 5.10138E+01
 1.10000E+01 2.92874E+01
 1.20000E+01 1.71860E+01
 1.30000E+01 1.17575E+01
 1.40000E+01 9.37297E+00
 1.50000E+01 8.24438E+00
 1.60000E+01 7.55966E+00
 1.70000E+01 7.14896E+00
 1.80000E+01 6.66319E+00
 1.90000E+01 6.24616E+00
 2.00000E+01 5.92891E+00
 2.10000E+01 5.62302E+00
 2.20000E+01 5.31018E+00
 2.30000E+01 5.04540E+00
 2.40000E+01 4.76048E+00
 2.50000E+01 4.41324E+00
 2.60000E+01 4.15415E+00
 2.70000E+01 3.91954E+00
 2.80000E+01 3.72816E+00
 2.90000E+01 3.56815E+00
 3.00000E+01 3.41337E+00
