# n + 208Pb: Gamma-ray intensity - 207Pb: Level  4 --> Level  1 - gamma energy    1.770247
# E-initial  =   2.339950 E-final=   0.569703
# E-threshold= 9.75490E+00
# # energies = 67
#    E         xs
 1.000E-11 0.00000E+00
 2.530E-08 0.00000E+00
 2.000E-07 0.00000E+00
 1.000E-06 0.00000E+00
 1.000E-03 0.00000E+00
 2.000E-03 0.00000E+00
 5.000E-03 0.00000E+00
 1.000E-02 0.00000E+00
 2.000E-02 0.00000E+00
 5.000E-02 0.00000E+00
 1.000E-01 0.00000E+00
 2.000E-01 0.00000E+00
 3.000E-01 0.00000E+00
 4.000E-01 0.00000E+00
 5.000E-01 0.00000E+00
 7.500E-01 0.00000E+00
 1.000E+00 0.00000E+00
 1.200E+00 0.00000E+00
 1.400E+00 0.00000E+00
 1.600E+00 0.00000E+00
 1.800E+00 0.00000E+00
 2.000E+00 0.00000E+00
 2.200E+00 0.00000E+00
 2.400E+00 0.00000E+00
 2.600E+00 0.00000E+00
 2.800E+00 0.00000E+00
 3.000E+00 0.00000E+00
 3.200E+00 0.00000E+00
 3.400E+00 0.00000E+00
 3.600E+00 0.00000E+00
 3.800E+00 0.00000E+00
 4.000E+00 0.00000E+00
 4.200E+00 0.00000E+00
 4.400E+00 0.00000E+00
 4.600E+00 0.00000E+00
 4.800E+00 0.00000E+00
 5.000E+00 0.00000E+00
 5.500E+00 0.00000E+00
 6.000E+00 0.00000E+00
 6.500E+00 0.00000E+00
 7.000E+00 0.00000E+00
 7.500E+00 0.00000E+00
 8.000E+00 0.00000E+00
 8.500E+00 0.00000E+00
 9.000E+00 0.00000E+00
 9.500E+00 0.00000E+00
 1.000E+01 1.24199E+00
 1.100E+01 4.30944E+01
 1.200E+01 1.17647E+02
 1.300E+01 1.83463E+02
 1.400E+01 2.18445E+02
 1.500E+01 2.29360E+02
 1.600E+01 2.21251E+02
 1.700E+01 1.94201E+02
 1.800E+01 1.57153E+02
 1.900E+01 1.21006E+02
 2.000E+01 9.25915E+01
 2.100E+01 7.19999E+01
 2.200E+01 5.84187E+01
 2.300E+01 4.98026E+01
 2.400E+01 4.41212E+01
 2.500E+01 4.03662E+01
 2.600E+01 3.75845E+01
 2.700E+01 3.54009E+01
 2.800E+01 3.37216E+01
 2.900E+01 3.19653E+01
 3.000E+01 3.07346E+01
