# n + 208Pb: Gamma-ray intensity - 208Pb: Level 10 --> Level  3 - gamma energy    0.569890
# E-initial  =   4.045000 E-final=   3.475110
# E-threshold= 4.06462E+00
# # energies = 67
#    E         xs
 1.000E-11 0.00000E+00
 2.530E-08 0.00000E+00
 2.000E-07 0.00000E+00
 1.000E-06 0.00000E+00
 1.000E-03 0.00000E+00
 2.000E-03 0.00000E+00
 5.000E-03 0.00000E+00
 1.000E-02 0.00000E+00
 2.000E-02 0.00000E+00
 5.000E-02 0.00000E+00
 1.000E-01 0.00000E+00
 2.000E-01 0.00000E+00
 3.000E-01 0.00000E+00
 4.000E-01 0.00000E+00
 5.000E-01 0.00000E+00
 7.500E-01 0.00000E+00
 1.000E+00 0.00000E+00
 1.200E+00 0.00000E+00
 1.400E+00 0.00000E+00
 1.600E+00 0.00000E+00
 1.800E+00 0.00000E+00
 2.000E+00 0.00000E+00
 2.200E+00 0.00000E+00
 2.400E+00 0.00000E+00
 2.600E+00 0.00000E+00
 2.800E+00 0.00000E+00
 3.000E+00 0.00000E+00
 3.200E+00 0.00000E+00
 3.400E+00 0.00000E+00
 3.600E+00 0.00000E+00
 3.800E+00 0.00000E+00
 4.000E+00 0.00000E+00
 4.200E+00 1.03890E+01
 4.400E+00 1.59398E+01
 4.600E+00 1.95834E+01
 4.800E+00 2.16803E+01
 5.000E+00 2.29973E+01
 5.500E+00 2.54537E+01
 6.000E+00 2.80740E+01
 6.500E+00 3.11071E+01
 7.000E+00 3.46603E+01
 7.500E+00 3.87047E+01
 8.000E+00 4.23979E+01
 8.500E+00 4.42369E+01
 9.000E+00 4.26019E+01
 9.500E+00 3.81011E+01
 1.000E+01 3.22330E+01
 1.100E+01 2.06550E+01
 1.200E+01 1.28980E+01
 1.300E+01 9.01875E+00
 1.400E+01 7.11105E+00
 1.500E+01 6.18826E+00
 1.600E+01 5.69962E+00
 1.700E+01 5.43103E+00
 1.800E+01 5.08775E+00
 1.900E+01 4.86245E+00
 2.000E+01 4.63592E+00
 2.100E+01 4.43362E+00
 2.200E+01 4.23190E+00
 2.300E+01 4.09333E+00
 2.400E+01 3.86114E+00
 2.500E+01 3.71981E+00
 2.600E+01 3.50213E+00
 2.700E+01 3.39273E+00
 2.800E+01 3.27882E+00
 2.900E+01 3.10778E+00
 3.000E+01 3.00616E+00
