# n + 208Pb: Gamma-ray intensity - 207Pb: Level  2 --> Level  0 - gamma energy    0.897698
# E-initial  =   0.897698 E-final=   0.000000
# E-threshold= 8.30566E+00
# # energies = 67
#    E         xs
 1.000E-11 0.00000E+00
 2.530E-08 0.00000E+00
 2.000E-07 0.00000E+00
 1.000E-06 0.00000E+00
 1.000E-03 0.00000E+00
 2.000E-03 0.00000E+00
 5.000E-03 0.00000E+00
 1.000E-02 0.00000E+00
 2.000E-02 0.00000E+00
 5.000E-02 0.00000E+00
 1.000E-01 0.00000E+00
 2.000E-01 0.00000E+00
 3.000E-01 0.00000E+00
 4.000E-01 0.00000E+00
 5.000E-01 0.00000E+00
 7.500E-01 0.00000E+00
 1.000E+00 0.00000E+00
 1.200E+00 0.00000E+00
 1.400E+00 0.00000E+00
 1.600E+00 0.00000E+00
 1.800E+00 0.00000E+00
 2.000E+00 0.00000E+00
 2.200E+00 0.00000E+00
 2.400E+00 0.00000E+00
 2.600E+00 0.00000E+00
 2.800E+00 0.00000E+00
 3.000E+00 0.00000E+00
 3.200E+00 0.00000E+00
 3.400E+00 0.00000E+00
 3.600E+00 0.00000E+00
 3.800E+00 0.00000E+00
 4.000E+00 0.00000E+00
 4.200E+00 0.00000E+00
 4.400E+00 0.00000E+00
 4.600E+00 0.00000E+00
 4.800E+00 0.00000E+00
 5.000E+00 0.00000E+00
 5.500E+00 0.00000E+00
 6.000E+00 0.00000E+00
 6.500E+00 0.00000E+00
 7.000E+00 0.00000E+00
 7.500E+00 0.00000E+00
 8.000E+00 0.00000E+00
 8.500E+00 1.01679E+00
 9.000E+00 1.95264E+01
 9.500E+00 5.86942E+01
 1.000E+01 1.03627E+02
 1.100E+01 1.84051E+02
 1.200E+01 2.19392E+02
 1.300E+01 2.15221E+02
 1.400E+01 1.96344E+02
 1.500E+01 1.76750E+02
 1.600E+01 1.55188E+02
 1.700E+01 1.30692E+02
 1.800E+01 1.07511E+02
 1.900E+01 8.69076E+01
 2.000E+01 7.11733E+01
 2.100E+01 5.80628E+01
 2.200E+01 4.93854E+01
 2.300E+01 4.30717E+01
 2.400E+01 3.87618E+01
 2.500E+01 3.55117E+01
 2.600E+01 3.33358E+01
 2.700E+01 3.14344E+01
 2.800E+01 3.01280E+01
 2.900E+01 2.87799E+01
 3.000E+01 2.77714E+01
