# n + 208Pb: Gamma-ray intensity - 208Pb: Level 21 --> Level  8 - gamma energy    0.363230
# E-initial  =   4.358670 E-final=   3.995440
# E-threshold= 4.37981E+00
# # energies = 67
#    E         xs
 1.000E-11 0.00000E+00
 2.530E-08 0.00000E+00
 2.000E-07 0.00000E+00
 1.000E-06 0.00000E+00
 1.000E-03 0.00000E+00
 2.000E-03 0.00000E+00
 5.000E-03 0.00000E+00
 1.000E-02 0.00000E+00
 2.000E-02 0.00000E+00
 5.000E-02 0.00000E+00
 1.000E-01 0.00000E+00
 2.000E-01 0.00000E+00
 3.000E-01 0.00000E+00
 4.000E-01 0.00000E+00
 5.000E-01 0.00000E+00
 7.500E-01 0.00000E+00
 1.000E+00 0.00000E+00
 1.200E+00 0.00000E+00
 1.400E+00 0.00000E+00
 1.600E+00 0.00000E+00
 1.800E+00 0.00000E+00
 2.000E+00 0.00000E+00
 2.200E+00 0.00000E+00
 2.400E+00 0.00000E+00
 2.600E+00 0.00000E+00
 2.800E+00 0.00000E+00
 3.000E+00 0.00000E+00
 3.200E+00 0.00000E+00
 3.400E+00 0.00000E+00
 3.600E+00 0.00000E+00
 3.800E+00 0.00000E+00
 4.000E+00 0.00000E+00
 4.200E+00 0.00000E+00
 4.400E+00 1.92691E-01
 4.600E+00 6.84277E-01
 4.800E+00 9.69518E-01
 5.000E+00 1.10147E+00
 5.500E+00 1.08345E+00
 6.000E+00 9.69622E-01
 6.500E+00 8.79250E-01
 7.000E+00 8.05710E-01
 7.500E+00 7.54361E-01
 8.000E+00 6.87996E-01
 8.500E+00 5.89617E-01
 9.000E+00 4.79884E-01
 9.500E+00 3.70010E-01
 1.000E+01 2.76072E-01
 1.100E+01 1.47353E-01
 1.200E+01 8.54860E-02
 1.300E+01 5.69331E-02
 1.400E+01 4.42226E-02
 1.500E+01 3.78598E-02
 1.600E+01 3.41847E-02
 1.700E+01 3.19794E-02
 1.800E+01 2.96902E-02
 1.900E+01 2.77385E-02
 2.000E+01 2.63229E-02
 2.100E+01 2.49259E-02
 2.200E+01 2.35761E-02
 2.300E+01 2.24832E-02
 2.400E+01 2.12873E-02
 2.500E+01 2.00434E-02
 2.600E+01 1.88673E-02
 2.700E+01 1.81748E-02
 2.800E+01 1.75117E-02
 2.900E+01 1.69505E-02
 3.000E+01 1.63743E-02
