# n + 208Pb: Gamma-ray intensity - 208Pb: Level 14 --> Level  2 - gamma energy    0.927570
# E-initial  =   4.125310 E-final=   3.197740
# E-threshold= 4.14532E+00
# # energies = 67
#    E         xs
 1.000E-11 0.00000E+00
 2.530E-08 0.00000E+00
 2.000E-07 0.00000E+00
 1.000E-06 0.00000E+00
 1.000E-03 0.00000E+00
 2.000E-03 0.00000E+00
 5.000E-03 0.00000E+00
 1.000E-02 0.00000E+00
 2.000E-02 0.00000E+00
 5.000E-02 0.00000E+00
 1.000E-01 0.00000E+00
 2.000E-01 0.00000E+00
 3.000E-01 0.00000E+00
 4.000E-01 0.00000E+00
 5.000E-01 0.00000E+00
 7.500E-01 0.00000E+00
 1.000E+00 0.00000E+00
 1.200E+00 0.00000E+00
 1.400E+00 0.00000E+00
 1.600E+00 0.00000E+00
 1.800E+00 0.00000E+00
 2.000E+00 0.00000E+00
 2.200E+00 0.00000E+00
 2.400E+00 0.00000E+00
 2.600E+00 0.00000E+00
 2.800E+00 0.00000E+00
 3.000E+00 0.00000E+00
 3.200E+00 0.00000E+00
 3.400E+00 0.00000E+00
 3.600E+00 0.00000E+00
 3.800E+00 0.00000E+00
 4.000E+00 0.00000E+00
 4.200E+00 2.08027E+01
 4.400E+00 4.58528E+01
 4.600E+00 5.82496E+01
 4.800E+00 6.26256E+01
 5.000E+00 6.27048E+01
 5.500E+00 5.73810E+01
 6.000E+00 5.22555E+01
 6.500E+00 4.84376E+01
 7.000E+00 4.57535E+01
 7.500E+00 4.42529E+01
 8.000E+00 4.14710E+01
 8.500E+00 3.64317E+01
 9.000E+00 3.01421E+01
 9.500E+00 2.39348E+01
 1.000E+01 1.83057E+01
 1.100E+01 1.04371E+01
 1.200E+01 6.52311E+00
 1.300E+01 4.64370E+00
 1.400E+01 3.75563E+00
 1.500E+01 3.28784E+00
 1.600E+01 3.00319E+00
 1.700E+01 2.84969E+00
 1.800E+01 2.66756E+00
 1.900E+01 2.52483E+00
 2.000E+01 2.41377E+00
 2.100E+01 2.30345E+00
 2.200E+01 2.24044E+00
 2.300E+01 2.13834E+00
 2.400E+01 2.04027E+00
 2.500E+01 1.97217E+00
 2.600E+01 1.86983E+00
 2.700E+01 1.80507E+00
 2.800E+01 1.72266E+00
 2.900E+01 1.69004E+00
 3.000E+01 1.61215E+00
