# n + 208Pb: Gamma-ray intensity - 208Pb: Level  8 --> Level  2 - gamma energy    0.797960
# E-initial  =   3.995700 E-final=   3.197740
# E-threshold= 4.01508E+00
# # energies = 67
#    E         xs
 1.000E-11 0.00000E+00
 2.530E-08 0.00000E+00
 2.000E-07 0.00000E+00
 1.000E-06 0.00000E+00
 1.000E-03 0.00000E+00
 2.000E-03 0.00000E+00
 5.000E-03 0.00000E+00
 1.000E-02 0.00000E+00
 2.000E-02 0.00000E+00
 5.000E-02 0.00000E+00
 1.000E-01 0.00000E+00
 2.000E-01 0.00000E+00
 3.000E-01 0.00000E+00
 4.000E-01 0.00000E+00
 5.000E-01 0.00000E+00
 7.500E-01 0.00000E+00
 1.000E+00 0.00000E+00
 1.200E+00 0.00000E+00
 1.400E+00 0.00000E+00
 1.600E+00 0.00000E+00
 1.800E+00 0.00000E+00
 2.000E+00 0.00000E+00
 2.200E+00 0.00000E+00
 2.400E+00 0.00000E+00
 2.600E+00 0.00000E+00
 2.800E+00 0.00000E+00
 3.000E+00 0.00000E+00
 3.200E+00 0.00000E+00
 3.400E+00 0.00000E+00
 3.600E+00 0.00000E+00
 3.800E+00 0.00000E+00
 4.000E+00 0.00000E+00
 4.200E+00 1.06740E+01
 4.400E+00 1.40565E+01
 4.600E+00 1.43830E+01
 4.800E+00 1.34788E+01
 5.000E+00 1.25053E+01
 5.500E+00 1.12774E+01
 6.000E+00 1.10819E+01
 6.500E+00 1.12115E+01
 7.000E+00 1.15106E+01
 7.500E+00 1.18844E+01
 8.000E+00 1.18926E+01
 8.500E+00 1.09700E+01
 9.000E+00 9.29507E+00
 9.500E+00 7.42471E+00
 1.000E+01 5.72450E+00
 1.100E+01 3.39416E+00
 1.200E+01 2.28930E+00
 1.300E+01 1.81216E+00
 1.400E+01 1.58336E+00
 1.500E+01 1.46190E+00
 1.600E+01 1.37890E+00
 1.700E+01 1.32896E+00
 1.800E+01 1.26677E+00
 1.900E+01 1.21681E+00
 2.000E+01 1.16916E+00
 2.100E+01 1.12852E+00
 2.200E+01 1.08393E+00
 2.300E+01 1.04759E+00
 2.400E+01 1.00309E+00
 2.500E+01 9.65883E-01
 2.600E+01 9.26625E-01
 2.700E+01 8.94647E-01
 2.800E+01 8.66580E-01
 2.900E+01 8.37747E-01
 3.000E+01 8.11679E-01
