# n + 208Pb: Gamma-ray intensity - 208Pb: Level 30 --> Level  3 - gamma energy    1.236740
# E-initial  =   4.711820 E-final=   3.475080
# E-threshold= 4.73467E+00
# # energies = 67
#    E         xs
 1.000E-11 0.00000E+00
 2.530E-08 0.00000E+00
 2.000E-07 0.00000E+00
 1.000E-06 0.00000E+00
 1.000E-03 0.00000E+00
 2.000E-03 0.00000E+00
 5.000E-03 0.00000E+00
 1.000E-02 0.00000E+00
 2.000E-02 0.00000E+00
 5.000E-02 0.00000E+00
 1.000E-01 0.00000E+00
 2.000E-01 0.00000E+00
 3.000E-01 0.00000E+00
 4.000E-01 0.00000E+00
 5.000E-01 0.00000E+00
 7.500E-01 0.00000E+00
 1.000E+00 0.00000E+00
 1.200E+00 0.00000E+00
 1.400E+00 0.00000E+00
 1.600E+00 0.00000E+00
 1.800E+00 0.00000E+00
 2.000E+00 0.00000E+00
 2.200E+00 0.00000E+00
 2.400E+00 0.00000E+00
 2.600E+00 0.00000E+00
 2.800E+00 0.00000E+00
 3.000E+00 0.00000E+00
 3.200E+00 0.00000E+00
 3.400E+00 0.00000E+00
 3.600E+00 0.00000E+00
 3.800E+00 0.00000E+00
 4.000E+00 0.00000E+00
 4.200E+00 0.00000E+00
 4.400E+00 0.00000E+00
 4.600E+00 0.00000E+00
 4.800E+00 2.72019E+00
 5.000E+00 6.08682E+00
 5.500E+00 9.13338E+00
 6.000E+00 8.43311E+00
 6.500E+00 7.57791E+00
 7.000E+00 6.88328E+00
 7.500E+00 6.26310E+00
 8.000E+00 5.53744E+00
 8.500E+00 4.63954E+00
 9.000E+00 3.71384E+00
 9.500E+00 2.82954E+00
 1.000E+01 2.08342E+00
 1.100E+01 1.07899E+00
 1.200E+01 6.04997E-01
 1.300E+01 3.88806E-01
 1.400E+01 2.93206E-01
 1.500E+01 2.47180E-01
 1.600E+01 2.24465E-01
 1.700E+01 2.11663E-01
 1.800E+01 1.99352E-01
 1.900E+01 1.87827E-01
 2.000E+01 1.81375E-01
 2.100E+01 1.73391E-01
 2.200E+01 1.66395E-01
 2.300E+01 1.60687E-01
 2.400E+01 1.53145E-01
 2.500E+01 1.47012E-01
 2.600E+01 1.40999E-01
 2.700E+01 1.37125E-01
 2.800E+01 1.32741E-01
 2.900E+01 1.29332E-01
 3.000E+01 1.25619E-01
