# n + 208Pb: Gamma-ray intensity - 208Pb: Level 28 --> Level  3 - gamma energy    1.223245
# E-initial  =   4.698323 E-final=   3.475078
# E-threshold= 4.72111E+00
# # energies =    67
#    E           xs
 1.00000E-11 0.00000E+00
 2.53000E-08 0.00000E+00
 2.00000E-07 0.00000E+00
 1.00000E-06 0.00000E+00
 1.00000E-03 0.00000E+00
 2.00000E-03 0.00000E+00
 5.00000E-03 0.00000E+00
 1.00000E-02 0.00000E+00
 2.00000E-02 0.00000E+00
 5.00000E-02 0.00000E+00
 1.00000E-01 0.00000E+00
 2.00000E-01 0.00000E+00
 3.00000E-01 0.00000E+00
 4.00000E-01 0.00000E+00
 5.00000E-01 0.00000E+00
 7.50000E-01 0.00000E+00
 1.00000E+00 0.00000E+00
 1.20000E+00 0.00000E+00
 1.40000E+00 0.00000E+00
 1.60000E+00 0.00000E+00
 1.80000E+00 0.00000E+00
 2.00000E+00 0.00000E+00
 2.20000E+00 0.00000E+00
 2.40000E+00 0.00000E+00
 2.60000E+00 0.00000E+00
 2.80000E+00 0.00000E+00
 3.00000E+00 0.00000E+00
 3.20000E+00 0.00000E+00
 3.40000E+00 0.00000E+00
 3.60000E+00 0.00000E+00
 3.80000E+00 0.00000E+00
 4.00000E+00 0.00000E+00
 4.20000E+00 0.00000E+00
 4.40000E+00 0.00000E+00
 4.60000E+00 0.00000E+00
 4.80000E+00 6.14807E+00
 5.00000E+00 1.29697E+01
 5.50000E+00 1.78667E+01
 6.00000E+00 1.58051E+01
 6.50000E+00 1.39849E+01
 7.00000E+00 1.26514E+01
 7.50000E+00 1.15202E+01
 8.00000E+00 9.86752E+00
 8.50000E+00 7.82337E+00
 9.00000E+00 6.02521E+00
 9.50000E+00 4.46874E+00
 1.00000E+01 3.29116E+00
 1.10000E+01 1.89530E+00
 1.20000E+01 1.29114E+00
 1.30000E+01 1.02519E+00
 1.40000E+01 9.08772E-01
 1.50000E+01 8.38732E-01
 1.60000E+01 7.84408E-01
 1.70000E+01 7.56464E-01
 1.80000E+01 7.20372E-01
 1.90000E+01 6.91274E-01
 2.00000E+01 6.71825E-01
 2.10000E+01 6.53985E-01
 2.20000E+01 6.26247E-01
 2.30000E+01 6.07766E-01
 2.40000E+01 5.86895E-01
 2.50000E+01 5.61379E-01
 2.60000E+01 5.44825E-01
 2.70000E+01 5.32816E-01
 2.80000E+01 5.15825E-01
 2.90000E+01 4.99626E-01
 3.00000E+01 4.87552E-01
