# n + 208Pb: Gamma-ray intensity - 208Pb: Level  7 --> Level  3 - gamma energy    0.485850
# E-initial  =   3.960960 E-final=   3.475110
# E-threshold= 3.98017E+00
# # energies = 67
#    E         xs
 1.000E-11 0.00000E+00
 2.530E-08 0.00000E+00
 2.000E-07 0.00000E+00
 1.000E-06 0.00000E+00
 1.000E-03 0.00000E+00
 2.000E-03 0.00000E+00
 5.000E-03 0.00000E+00
 1.000E-02 0.00000E+00
 2.000E-02 0.00000E+00
 5.000E-02 0.00000E+00
 1.000E-01 0.00000E+00
 2.000E-01 0.00000E+00
 3.000E-01 0.00000E+00
 4.000E-01 0.00000E+00
 5.000E-01 0.00000E+00
 7.500E-01 0.00000E+00
 1.000E+00 0.00000E+00
 1.200E+00 0.00000E+00
 1.400E+00 0.00000E+00
 1.600E+00 0.00000E+00
 1.800E+00 0.00000E+00
 2.000E+00 0.00000E+00
 2.200E+00 0.00000E+00
 2.400E+00 0.00000E+00
 2.600E+00 0.00000E+00
 2.800E+00 0.00000E+00
 3.000E+00 0.00000E+00
 3.200E+00 0.00000E+00
 3.400E+00 0.00000E+00
 3.600E+00 0.00000E+00
 3.800E+00 0.00000E+00
 4.000E+00 2.49309E-01
 4.200E+00 7.99447E-01
 4.400E+00 9.92676E-01
 4.600E+00 9.92918E-01
 4.800E+00 9.26327E-01
 5.000E+00 8.63331E-01
 5.500E+00 7.92330E-01
 6.000E+00 7.84442E-01
 6.500E+00 7.95372E-01
 7.000E+00 8.16993E-01
 7.500E+00 8.43283E-01
 8.000E+00 8.43622E-01
 8.500E+00 7.78053E-01
 9.000E+00 6.58872E-01
 9.500E+00 5.25450E-01
 1.000E+01 4.03992E-01
 1.100E+01 2.37384E-01
 1.200E+01 1.58468E-01
 1.300E+01 1.24569E-01
 1.400E+01 1.08413E-01
 1.500E+01 9.98837E-02
 1.600E+01 9.40535E-02
 1.700E+01 9.05268E-02
 1.800E+01 8.60987E-02
 1.900E+01 8.25542E-02
 2.000E+01 7.91697E-02
 2.100E+01 7.62899E-02
 2.200E+01 7.31470E-02
 2.300E+01 7.06141E-02
 2.400E+01 6.74829E-02
 2.500E+01 6.48795E-02
 2.600E+01 6.21401E-02
 2.700E+01 5.99300E-02
 2.800E+01 5.80080E-02
 2.900E+01 5.59992E-02
 3.000E+01 5.41941E-02
