# n + 208Pb: Gamma-ray intensity - 209Pb: Level  2 --> Level  0 - gamma energy    1.423000
# E-initial  =   1.423000 E-final=   0.000000
# E-threshold= 0.00000E+00
# # energies = 67
#    E         xs
 1.000E-11 0.00000E+00
 2.530E-08 0.00000E+00
 2.000E-07 0.00000E+00
 1.000E-06 0.00000E+00
 1.000E-03 0.00000E+00
 2.000E-03 0.00000E+00
 5.000E-03 0.00000E+00
 1.000E-02 0.00000E+00
 2.000E-02 0.00000E+00
 5.000E-02 1.67241E-09
 1.000E-01 4.10631E-08
 2.000E-01 4.80144E-07
 3.000E-01 3.79171E-05
 4.000E-01 1.07381E-04
 5.000E-01 1.99791E-04
 7.500E-01 4.69816E-04
 1.000E+00 2.29734E-03
 1.200E+00 4.17272E-03
 1.400E+00 7.92076E-03
 1.600E+00 1.27012E-02
 1.800E+00 1.95059E-02
 2.000E+00 3.01391E-02
 2.200E+00 4.42895E-02
 2.400E+00 6.38005E-02
 2.600E+00 9.03274E-02
 2.800E+00 1.16469E-01
 3.000E+00 1.32687E-01
 3.200E+00 1.50050E-01
 3.400E+00 7.64186E-02
 3.600E+00 5.92298E-02
 3.800E+00 4.95752E-02
 4.000E+00 3.85954E-02
 4.200E+00 2.13176E-02
 4.400E+00 1.67441E-02
 4.600E+00 1.48721E-02
 4.800E+00 1.90774E-02
 5.000E+00 1.90741E-02
 5.500E+00 2.33613E-02
 6.000E+00 2.99511E-02
 6.500E+00 4.02735E-02
 7.000E+00 5.56288E-02
 7.500E+00 7.89707E-02
 8.000E+00 1.14281E-01
 8.500E+00 1.66814E-01
 9.000E+00 2.27111E-01
 9.500E+00 2.67217E-01
 1.000E+01 2.76064E-01
 1.100E+01 2.71675E-01
 1.200E+01 2.92170E-01
 1.300E+01 3.18358E-01
 1.400E+01 3.13930E-01
 1.500E+01 2.75740E-01
 1.600E+01 2.22410E-01
 1.700E+01 1.81171E-01
 1.800E+01 1.52520E-01
 1.900E+01 1.34077E-01
 2.000E+01 1.23004E-01
 2.100E+01 1.12715E-01
 2.200E+01 1.04357E-01
 2.300E+01 9.64053E-02
 2.400E+01 8.82947E-02
 2.500E+01 8.17263E-02
 2.600E+01 7.58815E-02
 2.700E+01 7.12217E-02
 2.800E+01 6.77192E-02
 2.900E+01 6.48623E-02
 3.000E+01 6.24525E-02
