# n + 208Pb: Gamma-ray intensity - 209Pb: Level  8 --> Level  3 - gamma energy    0.895910
# E-initial  =   2.463000 E-final=   1.567090
# E-threshold= 0.00000E+00
# # energies =    67
#    E           xs
 1.00000E-11 0.00000E+00
 2.53000E-08 0.00000E+00
 2.00000E-07 0.00000E+00
 1.00000E-06 3.63726E-02
 1.00000E-03 7.39341E-03
 2.00000E-03 7.72557E-03
 5.00000E-03 7.59162E-03
 1.00000E-02 5.52023E-03
 2.00000E-02 3.35283E-03
 5.00000E-02 1.66561E-03
 1.00000E-01 1.08811E-03
 2.00000E-01 8.72675E-04
 3.00000E-01 8.06850E-04
 4.00000E-01 7.81034E-04
 5.00000E-01 7.81232E-04
 7.50000E-01 8.52999E-04
 1.00000E+00 9.97747E-04
 1.20000E+00 1.16181E-03
 1.40000E+00 1.35853E-03
 1.60000E+00 1.60772E-03
 1.80000E+00 1.90789E-03
 2.00000E+00 2.26562E-03
 2.20000E+00 2.72214E-03
 2.40000E+00 3.23302E-03
 2.60000E+00 3.82737E-03
 2.80000E+00 2.94298E-03
 3.00000E+00 2.83632E-03
 3.20000E+00 2.98789E-03
 3.40000E+00 3.07998E-03
 3.60000E+00 3.19102E-03
 3.80000E+00 3.21349E-03
 4.00000E+00 3.31087E-03
 4.20000E+00 3.00344E-03
 4.40000E+00 2.42395E-03
 4.60000E+00 2.07106E-03
 4.80000E+00 1.94013E-03
 5.00000E+00 1.74402E-03
 5.50000E+00 1.30213E-03
 6.00000E+00 1.04723E-03
 6.50000E+00 9.31452E-04
 7.00000E+00 9.29829E-04
 7.50000E+00 9.77701E-04
 8.00000E+00 1.16894E-03
 8.50000E+00 1.51896E-03
 9.00000E+00 2.06660E-03
 9.50000E+00 3.02629E-03
 1.00000E+01 4.39713E-03
 1.10000E+01 6.27674E-03
 1.20000E+01 4.81162E-03
 1.30000E+01 3.22935E-03
 1.40000E+01 2.32235E-03
 1.50000E+01 1.85581E-03
 1.60000E+01 1.56518E-03
 1.70000E+01 1.62112E-03
 1.80000E+01 1.52815E-03
 1.90000E+01 1.50732E-03
 2.00000E+01 1.42244E-03
 2.10000E+01 1.26671E-03
 2.20000E+01 1.09304E-03
 2.30000E+01 1.03732E-03
 2.40000E+01 8.49831E-04
 2.50000E+01 7.96837E-04
 2.60000E+01 6.99333E-04
 2.70000E+01 6.67984E-04
 2.80000E+01 6.41791E-04
 2.90000E+01 5.85242E-04
 3.00000E+01 5.67049E-04
