# n + 208Pb: Gamma-ray intensity - 208Pb: Level  4 --> Level  2 - gamma energy    0.510700
# E-initial  =   3.708440 E-final=   3.197740
# E-threshold= 3.72643E+00
# # energies = 66
#    E         xs
 1.000E-11 0.00000E+00
 2.530E-08 0.00000E+00
 1.000E-06 0.00000E+00
 1.000E-03 0.00000E+00
 2.000E-03 0.00000E+00
 5.000E-03 0.00000E+00
 1.000E-02 0.00000E+00
 2.000E-02 0.00000E+00
 5.000E-02 0.00000E+00
 1.000E-01 0.00000E+00
 2.000E-01 0.00000E+00
 3.000E-01 0.00000E+00
 4.000E-01 0.00000E+00
 5.000E-01 0.00000E+00
 7.500E-01 0.00000E+00
 1.000E+00 0.00000E+00
 1.200E+00 0.00000E+00
 1.400E+00 0.00000E+00
 1.600E+00 0.00000E+00
 1.800E+00 0.00000E+00
 2.000E+00 0.00000E+00
 2.200E+00 0.00000E+00
 2.400E+00 0.00000E+00
 2.600E+00 0.00000E+00
 2.800E+00 0.00000E+00
 3.000E+00 0.00000E+00
 3.200E+00 0.00000E+00
 3.400E+00 0.00000E+00
 3.600E+00 0.00000E+00
 3.800E+00 4.38638E+01
 4.000E+00 1.14639E+02
 4.200E+00 1.74590E+02
 4.400E+00 2.07850E+02
 4.600E+00 2.23611E+02
 4.800E+00 2.30359E+02
 5.000E+00 2.34111E+02
 5.500E+00 2.43709E+02
 6.000E+00 2.56953E+02
 6.500E+00 2.75356E+02
 7.000E+00 2.99156E+02
 7.500E+00 3.26759E+02
 8.000E+00 3.48860E+02
 8.500E+00 3.51976E+02
 9.000E+00 3.29197E+02
 9.500E+00 2.87218E+02
 1.000E+01 2.38114E+02
 1.100E+01 1.51272E+02
 1.200E+01 9.85907E+01
 1.300E+01 7.45742E+01
 1.400E+01 6.33855E+01
 1.500E+01 5.81125E+01
 1.600E+01 5.49774E+01
 1.700E+01 5.31688E+01
 1.800E+01 5.05607E+01
 1.900E+01 4.86255E+01
 2.000E+01 4.66924E+01
 2.100E+01 4.49247E+01
 2.200E+01 4.30135E+01
 2.300E+01 4.16539E+01
 2.400E+01 3.94654E+01
 2.500E+01 3.78892E+01
 2.600E+01 3.60075E+01
 2.700E+01 3.47137E+01
 2.800E+01 3.37180E+01
 2.900E+01 3.19841E+01
 3.000E+01 3.09312E+01
