# n + 208Pb: Gamma-ray intensity - 208Pb: Level 18 --> Level  4 - gamma energy    0.553420
# E-initial  =   4.261871 E-final=   3.708451
# E-threshold= 4.28254E+00
# # energies =    67
#    E           xs
 1.00000E-11 0.00000E+00
 2.53000E-08 0.00000E+00
 2.00000E-07 0.00000E+00
 1.00000E-06 0.00000E+00
 1.00000E-03 0.00000E+00
 2.00000E-03 0.00000E+00
 5.00000E-03 0.00000E+00
 1.00000E-02 0.00000E+00
 2.00000E-02 0.00000E+00
 5.00000E-02 0.00000E+00
 1.00000E-01 0.00000E+00
 2.00000E-01 0.00000E+00
 3.00000E-01 0.00000E+00
 4.00000E-01 0.00000E+00
 5.00000E-01 0.00000E+00
 7.50000E-01 0.00000E+00
 1.00000E+00 0.00000E+00
 1.20000E+00 0.00000E+00
 1.40000E+00 0.00000E+00
 1.60000E+00 0.00000E+00
 1.80000E+00 0.00000E+00
 2.00000E+00 0.00000E+00
 2.20000E+00 0.00000E+00
 2.40000E+00 0.00000E+00
 2.60000E+00 0.00000E+00
 2.80000E+00 0.00000E+00
 3.00000E+00 0.00000E+00
 3.20000E+00 0.00000E+00
 3.40000E+00 0.00000E+00
 3.60000E+00 0.00000E+00
 3.80000E+00 0.00000E+00
 4.00000E+00 0.00000E+00
 4.20000E+00 0.00000E+00
 4.40000E+00 7.29713E+00
 4.60000E+00 1.26441E+01
 4.80000E+00 1.57573E+01
 5.00000E+00 1.68945E+01
 5.50000E+00 1.58505E+01
 6.00000E+00 1.41051E+01
 6.50000E+00 1.27897E+01
 7.00000E+00 1.18078E+01
 7.50000E+00 1.11860E+01
 8.00000E+00 1.02076E+01
 8.50000E+00 8.60023E+00
 9.00000E+00 6.81521E+00
 9.50000E+00 5.08500E+00
 1.00000E+01 3.66712E+00
 1.10000E+01 1.83720E+00
 1.20000E+01 1.03079E+00
 1.30000E+01 6.88051E-01
 1.40000E+01 5.43006E-01
 1.50000E+01 4.70997E-01
 1.60000E+01 4.24310E-01
 1.70000E+01 3.99576E-01
 1.80000E+01 3.68291E-01
 1.90000E+01 3.43111E-01
 2.00000E+01 3.22969E-01
 2.10000E+01 3.06023E-01
 2.20000E+01 2.87189E-01
 2.30000E+01 2.72728E-01
 2.40000E+01 2.57464E-01
 2.50000E+01 2.39186E-01
 2.60000E+01 2.25338E-01
 2.70000E+01 2.16260E-01
 2.80000E+01 2.05055E-01
 2.90000E+01 1.96674E-01
 3.00000E+01 1.88740E-01
