# n + 208Pb: Gamma-ray intensity - 208Pb: Level 17 --> Level  3 - gamma energy    0.779710
# E-initial  =   4.254790 E-final=   3.475080
# E-threshold= 4.27543E+00
# # energies = 67
#    E         xs
 1.000E-11 0.00000E+00
 2.530E-08 0.00000E+00
 2.000E-07 0.00000E+00
 1.000E-06 0.00000E+00
 1.000E-03 0.00000E+00
 2.000E-03 0.00000E+00
 5.000E-03 0.00000E+00
 1.000E-02 0.00000E+00
 2.000E-02 0.00000E+00
 5.000E-02 0.00000E+00
 1.000E-01 0.00000E+00
 2.000E-01 0.00000E+00
 3.000E-01 0.00000E+00
 4.000E-01 0.00000E+00
 5.000E-01 0.00000E+00
 7.500E-01 0.00000E+00
 1.000E+00 0.00000E+00
 1.200E+00 0.00000E+00
 1.400E+00 0.00000E+00
 1.600E+00 0.00000E+00
 1.800E+00 0.00000E+00
 2.000E+00 0.00000E+00
 2.200E+00 0.00000E+00
 2.400E+00 0.00000E+00
 2.600E+00 0.00000E+00
 2.800E+00 0.00000E+00
 3.000E+00 0.00000E+00
 3.200E+00 0.00000E+00
 3.400E+00 0.00000E+00
 3.600E+00 0.00000E+00
 3.800E+00 0.00000E+00
 4.000E+00 0.00000E+00
 4.200E+00 0.00000E+00
 4.400E+00 2.11660E+00
 4.600E+00 3.50837E+00
 4.800E+00 4.37198E+00
 5.000E+00 4.71693E+00
 5.500E+00 4.42181E+00
 6.000E+00 3.90718E+00
 6.500E+00 3.53134E+00
 7.000E+00 3.24210E+00
 7.500E+00 3.02855E+00
 8.000E+00 2.67571E+00
 8.500E+00 2.19252E+00
 9.000E+00 1.73517E+00
 9.500E+00 1.30943E+00
 1.000E+01 9.72968E-01
 1.100E+01 5.44275E-01
 1.200E+01 3.44482E-01
 1.300E+01 2.50769E-01
 1.400E+01 2.09799E-01
 1.500E+01 1.86825E-01
 1.600E+01 1.71425E-01
 1.700E+01 1.63094E-01
 1.800E+01 1.52448E-01
 1.900E+01 1.43632E-01
 2.000E+01 1.37804E-01
 2.100E+01 1.32300E-01
 2.200E+01 1.24865E-01
 2.300E+01 1.20200E-01
 2.400E+01 1.15133E-01
 2.500E+01 1.08365E-01
 2.600E+01 1.03566E-01
 2.700E+01 1.00646E-01
 2.800E+01 9.79230E-02
 2.900E+01 9.44569E-02
 3.000E+01 9.18343E-02
