# n + 208Pb: Gamma-ray intensity - 208Pb: Level 11 --> Level  1 - gamma energy    1.435950
# E-initial  =   4.050500 E-final=   2.614550
# E-threshold= 4.07014E+00
# # energies = 67
#    E         xs
 1.000E-11 0.00000E+00
 2.530E-08 0.00000E+00
 2.000E-07 0.00000E+00
 1.000E-06 0.00000E+00
 1.000E-03 0.00000E+00
 2.000E-03 0.00000E+00
 5.000E-03 0.00000E+00
 1.000E-02 0.00000E+00
 2.000E-02 0.00000E+00
 5.000E-02 0.00000E+00
 1.000E-01 0.00000E+00
 2.000E-01 0.00000E+00
 3.000E-01 0.00000E+00
 4.000E-01 0.00000E+00
 5.000E-01 0.00000E+00
 7.500E-01 0.00000E+00
 1.000E+00 0.00000E+00
 1.200E+00 0.00000E+00
 1.400E+00 0.00000E+00
 1.600E+00 0.00000E+00
 1.800E+00 0.00000E+00
 2.000E+00 0.00000E+00
 2.200E+00 0.00000E+00
 2.400E+00 0.00000E+00
 2.600E+00 0.00000E+00
 2.800E+00 0.00000E+00
 3.000E+00 0.00000E+00
 3.200E+00 0.00000E+00
 3.400E+00 0.00000E+00
 3.600E+00 0.00000E+00
 3.800E+00 0.00000E+00
 4.000E+00 0.00000E+00
 4.200E+00 5.89551E+01
 4.400E+00 8.84958E+01
 4.600E+00 9.82432E+01
 4.800E+00 9.79100E+01
 5.000E+00 9.34347E+01
 5.500E+00 7.99074E+01
 6.000E+00 6.97441E+01
 6.500E+00 6.24823E+01
 7.000E+00 5.75365E+01
 7.500E+00 5.45073E+01
 8.000E+00 4.91660E+01
 8.500E+00 4.13750E+01
 9.000E+00 3.32236E+01
 9.500E+00 2.58764E+01
 1.000E+01 1.94335E+01
 1.100E+01 1.11006E+01
 1.200E+01 7.18263E+00
 1.300E+01 5.28214E+00
 1.400E+01 4.39339E+00
 1.500E+01 3.86277E+00
 1.600E+01 3.53166E+00
 1.700E+01 3.35942E+00
 1.800E+01 3.18429E+00
 1.900E+01 2.99656E+00
 2.000E+01 2.90435E+00
 2.100E+01 2.76176E+00
 2.200E+01 2.72521E+00
 2.300E+01 2.58278E+00
 2.400E+01 2.50409E+00
 2.500E+01 2.43205E+00
 2.600E+01 2.29565E+00
 2.700E+01 2.23061E+00
 2.800E+01 2.16073E+00
 2.900E+01 2.11505E+00
 3.000E+01 2.01629E+00
