# n + 208Pb: Gamma-ray intensity - 208Pb: Level 11 --> Level  0 - gamma energy    4.085520
# E-initial  =   4.085520 E-final=   0.000000
# E-threshold= 4.10533E+00
# # energies = 67
#    E         xs
 1.000E-11 0.00000E+00
 2.530E-08 0.00000E+00
 2.000E-07 0.00000E+00
 1.000E-06 0.00000E+00
 1.000E-03 0.00000E+00
 2.000E-03 0.00000E+00
 5.000E-03 0.00000E+00
 1.000E-02 0.00000E+00
 2.000E-02 0.00000E+00
 5.000E-02 0.00000E+00
 1.000E-01 0.00000E+00
 2.000E-01 0.00000E+00
 3.000E-01 0.00000E+00
 4.000E-01 0.00000E+00
 5.000E-01 0.00000E+00
 7.500E-01 0.00000E+00
 1.000E+00 0.00000E+00
 1.200E+00 0.00000E+00
 1.400E+00 0.00000E+00
 1.600E+00 0.00000E+00
 1.800E+00 0.00000E+00
 2.000E+00 0.00000E+00
 2.200E+00 0.00000E+00
 2.400E+00 0.00000E+00
 2.600E+00 0.00000E+00
 2.800E+00 0.00000E+00
 3.000E+00 0.00000E+00
 3.200E+00 0.00000E+00
 3.400E+00 0.00000E+00
 3.600E+00 0.00000E+00
 3.800E+00 0.00000E+00
 4.000E+00 0.00000E+00
 4.200E+00 3.97796E+01
 4.400E+00 8.64996E+01
 4.600E+00 1.04406E+02
 4.800E+00 1.09524E+02
 5.000E+00 1.10633E+02
 5.500E+00 1.14103E+02
 6.000E+00 1.14294E+02
 6.500E+00 1.05071E+02
 7.000E+00 9.39006E+01
 7.500E+00 8.53679E+01
 8.000E+00 7.32040E+01
 8.500E+00 5.87932E+01
 9.000E+00 4.63069E+01
 9.500E+00 3.46358E+01
 1.000E+01 2.60609E+01
 1.100E+01 1.47969E+01
 1.200E+01 9.53428E+00
 1.300E+01 6.99553E+00
 1.400E+01 5.86905E+00
 1.500E+01 5.20719E+00
 1.600E+01 4.72059E+00
 1.700E+01 4.47500E+00
 1.800E+01 4.10337E+00
 1.900E+01 3.82742E+00
 2.000E+01 3.59566E+00
 2.100E+01 3.42443E+00
 2.200E+01 3.16229E+00
 2.300E+01 3.02201E+00
 2.400E+01 2.88280E+00
 2.500E+01 2.61180E+00
 2.600E+01 2.44152E+00
 2.700E+01 2.35301E+00
 2.800E+01 2.28463E+00
 2.900E+01 2.17931E+00
 3.000E+01 2.09827E+00
