# n + 208Pb: Gamma-ray intensity - 207Pb: Level  4 --> Level  1 - gamma energy    1.770222
# E-initial  =   2.339920 E-final=   0.569698
# E-threshold= 9.75487E+00
# # energies = 67
#    E         xs
 1.000E-11 0.00000E+00
 2.530E-08 0.00000E+00
 2.000E-07 0.00000E+00
 1.000E-06 0.00000E+00
 1.000E-03 0.00000E+00
 2.000E-03 0.00000E+00
 5.000E-03 0.00000E+00
 1.000E-02 0.00000E+00
 2.000E-02 0.00000E+00
 5.000E-02 0.00000E+00
 1.000E-01 0.00000E+00
 2.000E-01 0.00000E+00
 3.000E-01 0.00000E+00
 4.000E-01 0.00000E+00
 5.000E-01 0.00000E+00
 7.500E-01 0.00000E+00
 1.000E+00 0.00000E+00
 1.200E+00 0.00000E+00
 1.400E+00 0.00000E+00
 1.600E+00 0.00000E+00
 1.800E+00 0.00000E+00
 2.000E+00 0.00000E+00
 2.200E+00 0.00000E+00
 2.400E+00 0.00000E+00
 2.600E+00 0.00000E+00
 2.800E+00 0.00000E+00
 3.000E+00 0.00000E+00
 3.200E+00 0.00000E+00
 3.400E+00 0.00000E+00
 3.600E+00 0.00000E+00
 3.800E+00 0.00000E+00
 4.000E+00 0.00000E+00
 4.200E+00 0.00000E+00
 4.400E+00 0.00000E+00
 4.600E+00 0.00000E+00
 4.800E+00 0.00000E+00
 5.000E+00 0.00000E+00
 5.500E+00 0.00000E+00
 6.000E+00 0.00000E+00
 6.500E+00 0.00000E+00
 7.000E+00 0.00000E+00
 7.500E+00 0.00000E+00
 8.000E+00 0.00000E+00
 8.500E+00 0.00000E+00
 9.000E+00 0.00000E+00
 9.500E+00 0.00000E+00
 1.000E+01 1.34762E+00
 1.100E+01 4.98809E+01
 1.200E+01 1.45987E+02
 1.300E+01 2.31998E+02
 1.400E+01 2.78961E+02
 1.500E+01 2.94693E+02
 1.600E+01 2.86418E+02
 1.700E+01 2.53806E+02
 1.800E+01 2.07156E+02
 1.900E+01 1.60201E+02
 2.000E+01 1.22831E+02
 2.100E+01 9.53455E+01
 2.200E+01 7.78193E+01
 2.300E+01 6.62764E+01
 2.400E+01 5.89564E+01
 2.500E+01 5.39409E+01
 2.600E+01 5.03282E+01
 2.700E+01 4.74985E+01
 2.800E+01 4.53882E+01
 2.900E+01 4.32948E+01
 3.000E+01 4.16628E+01
