# n + 208Pb: Gamma-ray intensity - 209Pb: Level  6 --> Level  4 - gamma energy    0.286780
# E-initial  =   2.319000 E-final=   2.032220
# E-threshold= 0.00000E+00
# # energies =    67
#    E           xs
 1.00000E-11 0.00000E+00
 2.53000E-08 0.00000E+00
 2.00000E-07 0.00000E+00
 1.00000E-06 7.63250E+01
 1.00000E-03 1.51376E-01
 2.00000E-03 1.00938E-01
 5.00000E-03 6.77983E-02
 1.00000E-02 4.44087E-02
 2.00000E-02 2.58829E-02
 5.00000E-02 1.23568E-02
 1.00000E-01 7.34590E-03
 2.00000E-01 4.73762E-03
 3.00000E-01 3.94801E-03
 4.00000E-01 3.65617E-03
 5.00000E-01 3.58200E-03
 7.50000E-01 3.84645E-03
 1.00000E+00 4.49191E-03
 1.20000E+00 5.23514E-03
 1.40000E+00 6.11998E-03
 1.60000E+00 7.25227E-03
 1.80000E+00 8.61173E-03
 2.00000E+00 1.02249E-02
 2.20000E+00 1.23253E-02
 2.40000E+00 1.46648E-02
 2.60000E+00 1.72903E-02
 2.80000E+00 1.58300E-02
 3.00000E+00 1.59142E-02
 3.20000E+00 1.71373E-02
 3.40000E+00 1.80893E-02
 3.60000E+00 1.94383E-02
 3.80000E+00 1.99392E-02
 4.00000E+00 2.10280E-02
 4.20000E+00 1.96105E-02
 4.40000E+00 1.58073E-02
 4.60000E+00 1.36734E-02
 4.80000E+00 1.34506E-02
 5.00000E+00 1.23755E-02
 5.50000E+00 9.76267E-03
 6.00000E+00 8.47619E-03
 6.50000E+00 8.53327E-03
 7.00000E+00 9.82059E-03
 7.50000E+00 1.23272E-02
 8.00000E+00 1.74183E-02
 8.50000E+00 2.63291E-02
 9.00000E+00 4.08439E-02
 9.50000E+00 6.24809E-02
 1.00000E+01 8.40361E-02
 1.10000E+01 8.44823E-02
 1.20000E+01 5.77109E-02
 1.30000E+01 3.90395E-02
 1.40000E+01 3.00442E-02
 1.50000E+01 2.36084E-02
 1.60000E+01 1.98859E-02
 1.70000E+01 1.85768E-02
 1.80000E+01 1.70387E-02
 1.90000E+01 1.62007E-02
 2.00000E+01 1.50003E-02
 2.10000E+01 1.35955E-02
 2.20000E+01 1.21898E-02
 2.30000E+01 1.15670E-02
 2.40000E+01 1.03913E-02
 2.50000E+01 9.88600E-03
 2.60000E+01 9.20308E-03
 2.70000E+01 8.85912E-03
 2.80000E+01 8.46482E-03
 2.90000E+01 8.01970E-03
 3.00000E+01 7.79686E-03
