# n + 208Pb: Gamma-ray intensity - 208Pb: Level  4 --> Level  1 - gamma energy    1.093890
# E-initial  =   3.708440 E-final=   2.614550
# E-threshold= 3.72643E+00
# # energies = 67
#    E         xs
 1.000E-11 0.00000E+00
 2.530E-08 0.00000E+00
 2.000E-07 0.00000E+00
 1.000E-06 0.00000E+00
 1.000E-03 0.00000E+00
 2.000E-03 0.00000E+00
 5.000E-03 0.00000E+00
 1.000E-02 0.00000E+00
 2.000E-02 0.00000E+00
 5.000E-02 0.00000E+00
 1.000E-01 0.00000E+00
 2.000E-01 0.00000E+00
 3.000E-01 0.00000E+00
 4.000E-01 0.00000E+00
 5.000E-01 0.00000E+00
 7.500E-01 0.00000E+00
 1.000E+00 0.00000E+00
 1.200E+00 0.00000E+00
 1.400E+00 0.00000E+00
 1.600E+00 0.00000E+00
 1.800E+00 0.00000E+00
 2.000E+00 0.00000E+00
 2.200E+00 0.00000E+00
 2.400E+00 0.00000E+00
 2.600E+00 0.00000E+00
 2.800E+00 0.00000E+00
 3.000E+00 0.00000E+00
 3.200E+00 0.00000E+00
 3.400E+00 0.00000E+00
 3.600E+00 0.00000E+00
 3.800E+00 7.07611E-01
 4.000E+00 1.77161E+00
 4.200E+00 2.60124E+00
 4.400E+00 3.04859E+00
 4.600E+00 3.29322E+00
 4.800E+00 3.42845E+00
 5.000E+00 3.52313E+00
 5.500E+00 3.73034E+00
 6.000E+00 3.94570E+00
 6.500E+00 4.22788E+00
 7.000E+00 4.59948E+00
 7.500E+00 5.04635E+00
 8.000E+00 5.42090E+00
 8.500E+00 5.55029E+00
 9.000E+00 5.32028E+00
 9.500E+00 4.80554E+00
 1.000E+01 4.13811E+00
 1.100E+01 2.78764E+00
 1.200E+01 1.83621E+00
 1.300E+01 1.33468E+00
 1.400E+01 1.07476E+00
 1.500E+01 9.46611E-01
 1.600E+01 8.76122E-01
 1.700E+01 8.37091E-01
 1.800E+01 7.90921E-01
 1.900E+01 7.58609E-01
 2.000E+01 7.26632E-01
 2.100E+01 6.98024E-01
 2.200E+01 6.61627E-01
 2.300E+01 6.39113E-01
 2.400E+01 6.06308E-01
 2.500E+01 5.81647E-01
 2.600E+01 5.51569E-01
 2.700E+01 5.32665E-01
 2.800E+01 5.15608E-01
 2.900E+01 4.91045E-01
 3.000E+01 4.74044E-01
