# n + 208Pb: Gamma-ray intensity - 208Pb: Level 22 --> Level 15 - gamma energy    0.177010
# E-initial  =   4.383290 E-final=   4.206280
# E-threshold= 4.40455E+00
# # energies = 67
#    E         xs
 1.000E-11 0.00000E+00
 2.530E-08 0.00000E+00
 2.000E-07 0.00000E+00
 1.000E-06 0.00000E+00
 1.000E-03 0.00000E+00
 2.000E-03 0.00000E+00
 5.000E-03 0.00000E+00
 1.000E-02 0.00000E+00
 2.000E-02 0.00000E+00
 5.000E-02 0.00000E+00
 1.000E-01 0.00000E+00
 2.000E-01 0.00000E+00
 3.000E-01 0.00000E+00
 4.000E-01 0.00000E+00
 5.000E-01 0.00000E+00
 7.500E-01 0.00000E+00
 1.000E+00 0.00000E+00
 1.200E+00 0.00000E+00
 1.400E+00 0.00000E+00
 1.600E+00 0.00000E+00
 1.800E+00 0.00000E+00
 2.000E+00 0.00000E+00
 2.200E+00 0.00000E+00
 2.400E+00 0.00000E+00
 2.600E+00 0.00000E+00
 2.800E+00 0.00000E+00
 3.000E+00 0.00000E+00
 3.200E+00 0.00000E+00
 3.400E+00 0.00000E+00
 3.600E+00 0.00000E+00
 3.800E+00 0.00000E+00
 4.000E+00 0.00000E+00
 4.200E+00 0.00000E+00
 4.400E+00 0.00000E+00
 4.600E+00 1.12041E-01
 4.800E+00 1.73855E-01
 5.000E+00 2.13927E-01
 5.500E+00 2.49807E-01
 6.000E+00 2.62398E-01
 6.500E+00 2.77602E-01
 7.000E+00 2.94328E-01
 7.500E+00 3.14299E-01
 8.000E+00 3.33722E-01
 8.500E+00 3.40050E-01
 9.000E+00 3.19708E-01
 9.500E+00 2.79079E-01
 1.000E+01 2.28699E-01
 1.100E+01 1.37621E-01
 1.200E+01 8.14262E-02
 1.300E+01 5.38188E-02
 1.400E+01 4.08479E-02
 1.500E+01 3.48043E-02
 1.600E+01 3.15969E-02
 1.700E+01 2.96853E-02
 1.800E+01 2.76938E-02
 1.900E+01 2.59683E-02
 2.000E+01 2.48365E-02
 2.100E+01 2.36118E-02
 2.200E+01 2.23590E-02
 2.300E+01 2.14096E-02
 2.400E+01 2.02758E-02
 2.500E+01 1.90748E-02
 2.600E+01 1.80291E-02
 2.700E+01 1.71159E-02
 2.800E+01 1.64269E-02
 2.900E+01 1.58261E-02
 3.000E+01 1.52271E-02
