# n + 208Pb: Gamma-ray intensity - 208Pb: Level  8 --> Level  2 - gamma energy    0.797727
# E-initial  =   3.995438 E-final=   3.197711
# E-threshold= 4.01482E+00
# # energies =    67
#    E           xs
 1.00000E-11 0.00000E+00
 2.53000E-08 0.00000E+00
 2.00000E-07 0.00000E+00
 1.00000E-06 0.00000E+00
 1.00000E-03 0.00000E+00
 2.00000E-03 0.00000E+00
 5.00000E-03 0.00000E+00
 1.00000E-02 0.00000E+00
 2.00000E-02 0.00000E+00
 5.00000E-02 0.00000E+00
 1.00000E-01 0.00000E+00
 2.00000E-01 0.00000E+00
 3.00000E-01 0.00000E+00
 4.00000E-01 0.00000E+00
 5.00000E-01 0.00000E+00
 7.50000E-01 0.00000E+00
 1.00000E+00 0.00000E+00
 1.20000E+00 0.00000E+00
 1.40000E+00 0.00000E+00
 1.60000E+00 0.00000E+00
 1.80000E+00 0.00000E+00
 2.00000E+00 0.00000E+00
 2.20000E+00 0.00000E+00
 2.40000E+00 0.00000E+00
 2.60000E+00 0.00000E+00
 2.80000E+00 0.00000E+00
 3.00000E+00 0.00000E+00
 3.20000E+00 0.00000E+00
 3.40000E+00 0.00000E+00
 3.60000E+00 0.00000E+00
 3.80000E+00 0.00000E+00
 4.00000E+00 0.00000E+00
 4.20000E+00 1.48230E+01
 4.40000E+00 2.10318E+01
 4.60000E+00 2.34348E+01
 4.80000E+00 2.40532E+01
 5.00000E+00 2.36442E+01
 5.50000E+00 2.16043E+01
 6.00000E+00 1.97217E+01
 6.50000E+00 1.82443E+01
 7.00000E+00 1.72856E+01
 7.50000E+00 1.67422E+01
 8.00000E+00 1.54862E+01
 8.50000E+00 1.31554E+01
 9.00000E+00 1.04890E+01
 9.50000E+00 7.86978E+00
 1.00000E+01 5.71072E+00
 1.10000E+01 2.89545E+00
 1.20000E+01 1.64405E+00
 1.30000E+01 1.10906E+00
 1.40000E+01 8.80974E-01
 1.50000E+01 7.65081E-01
 1.60000E+01 6.87880E-01
 1.70000E+01 6.44704E-01
 1.80000E+01 5.90825E-01
 1.90000E+01 5.48207E-01
 2.00000E+01 5.12717E-01
 2.10000E+01 4.83250E-01
 2.20000E+01 4.50889E-01
 2.30000E+01 4.25478E-01
 2.40000E+01 3.99984E-01
 2.50000E+01 3.67164E-01
 2.60000E+01 3.44345E-01
 2.70000E+01 3.29028E-01
 2.80000E+01 3.12455E-01
 2.90000E+01 2.98751E-01
 3.00000E+01 2.85546E-01
