# n + 208Pb: Gamma-ray intensity - 207Pb: Level  4 --> Level  1 - gamma energy    1.770247
# E-initial  =   2.339950 E-final=   0.569703
# E-threshold= 9.75490E+00
# # energies = 67
#    E         xs
 1.000E-11 0.00000E+00
 2.530E-08 0.00000E+00
 2.000E-07 0.00000E+00
 1.000E-06 0.00000E+00
 1.000E-03 0.00000E+00
 2.000E-03 0.00000E+00
 5.000E-03 0.00000E+00
 1.000E-02 0.00000E+00
 2.000E-02 0.00000E+00
 5.000E-02 0.00000E+00
 1.000E-01 0.00000E+00
 2.000E-01 0.00000E+00
 3.000E-01 0.00000E+00
 4.000E-01 0.00000E+00
 5.000E-01 0.00000E+00
 7.500E-01 0.00000E+00
 1.000E+00 0.00000E+00
 1.200E+00 0.00000E+00
 1.400E+00 0.00000E+00
 1.600E+00 0.00000E+00
 1.800E+00 0.00000E+00
 2.000E+00 0.00000E+00
 2.200E+00 0.00000E+00
 2.400E+00 0.00000E+00
 2.600E+00 0.00000E+00
 2.800E+00 0.00000E+00
 3.000E+00 0.00000E+00
 3.200E+00 0.00000E+00
 3.400E+00 0.00000E+00
 3.600E+00 0.00000E+00
 3.800E+00 0.00000E+00
 4.000E+00 0.00000E+00
 4.200E+00 0.00000E+00
 4.400E+00 0.00000E+00
 4.600E+00 0.00000E+00
 4.800E+00 0.00000E+00
 5.000E+00 0.00000E+00
 5.500E+00 0.00000E+00
 6.000E+00 0.00000E+00
 6.500E+00 0.00000E+00
 7.000E+00 0.00000E+00
 7.500E+00 0.00000E+00
 8.000E+00 0.00000E+00
 8.500E+00 0.00000E+00
 9.000E+00 0.00000E+00
 9.500E+00 0.00000E+00
 1.000E+01 1.24738E+00
 1.100E+01 4.32594E+01
 1.200E+01 1.16818E+02
 1.300E+01 1.80166E+02
 1.400E+01 2.12613E+02
 1.500E+01 2.21929E+02
 1.600E+01 2.14008E+02
 1.700E+01 1.87598E+02
 1.800E+01 1.50684E+02
 1.900E+01 1.14838E+02
 2.000E+01 8.69492E+01
 2.100E+01 6.73335E+01
 2.200E+01 5.44335E+01
 2.300E+01 4.63355E+01
 2.400E+01 4.08571E+01
 2.500E+01 3.71360E+01
 2.600E+01 3.43659E+01
 2.700E+01 3.21976E+01
 2.800E+01 3.05373E+01
 2.900E+01 2.88959E+01
 3.000E+01 2.75881E+01
