# n + 208Pb: Gamma-ray intensity - 208Pb: Level 29 --> Level  2 - gamma energy    1.511016
# E-initial  =   4.708727 E-final=   3.197711
# E-threshold= 4.73156E+00
# # energies =    67
#    E           xs
 1.00000E-11 0.00000E+00
 2.53000E-08 0.00000E+00
 2.00000E-07 0.00000E+00
 1.00000E-06 0.00000E+00
 1.00000E-03 0.00000E+00
 2.00000E-03 0.00000E+00
 5.00000E-03 0.00000E+00
 1.00000E-02 0.00000E+00
 2.00000E-02 0.00000E+00
 5.00000E-02 0.00000E+00
 1.00000E-01 0.00000E+00
 2.00000E-01 0.00000E+00
 3.00000E-01 0.00000E+00
 4.00000E-01 0.00000E+00
 5.00000E-01 0.00000E+00
 7.50000E-01 0.00000E+00
 1.00000E+00 0.00000E+00
 1.20000E+00 0.00000E+00
 1.40000E+00 0.00000E+00
 1.60000E+00 0.00000E+00
 1.80000E+00 0.00000E+00
 2.00000E+00 0.00000E+00
 2.20000E+00 0.00000E+00
 2.40000E+00 0.00000E+00
 2.60000E+00 0.00000E+00
 2.80000E+00 0.00000E+00
 3.00000E+00 0.00000E+00
 3.20000E+00 0.00000E+00
 3.40000E+00 0.00000E+00
 3.60000E+00 0.00000E+00
 3.80000E+00 0.00000E+00
 4.00000E+00 0.00000E+00
 4.20000E+00 0.00000E+00
 4.40000E+00 0.00000E+00
 4.60000E+00 0.00000E+00
 4.80000E+00 2.23222E+00
 5.00000E+00 4.84701E+00
 5.50000E+00 7.34992E+00
 6.00000E+00 6.93785E+00
 6.50000E+00 6.40450E+00
 7.00000E+00 6.02727E+00
 7.50000E+00 5.73318E+00
 8.00000E+00 5.41405E+00
 8.50000E+00 4.85133E+00
 9.00000E+00 4.04123E+00
 9.50000E+00 3.19151E+00
 1.00000E+01 2.42461E+00
 1.10000E+01 1.35483E+00
 1.20000E+01 8.46976E-01
 1.30000E+01 6.27450E-01
 1.40000E+01 5.29890E-01
 1.50000E+01 4.79762E-01
 1.60000E+01 4.46828E-01
 1.70000E+01 4.26566E-01
 1.80000E+01 4.05440E-01
 1.90000E+01 3.87744E-01
 2.00000E+01 3.73312E-01
 2.10000E+01 3.59606E-01
 2.20000E+01 3.45339E-01
 2.30000E+01 3.32226E-01
 2.40000E+01 3.18581E-01
 2.50000E+01 3.05329E-01
 2.60000E+01 2.93101E-01
 2.70000E+01 2.84035E-01
 2.80000E+01 2.72371E-01
 2.90000E+01 2.63857E-01
 3.00000E+01 2.55498E-01
