# n + 208Pb: Gamma-ray intensity - 208Pb: Level 15 --> Level  2 - gamma energy    1.008566
# E-initial  =   4.206277 E-final=   3.197711
# E-threshold= 4.22668E+00
# # energies =    67
#    E           xs
 1.00000E-11 0.00000E+00
 2.53000E-08 0.00000E+00
 2.00000E-07 0.00000E+00
 1.00000E-06 0.00000E+00
 1.00000E-03 0.00000E+00
 2.00000E-03 0.00000E+00
 5.00000E-03 0.00000E+00
 1.00000E-02 0.00000E+00
 2.00000E-02 0.00000E+00
 5.00000E-02 0.00000E+00
 1.00000E-01 0.00000E+00
 2.00000E-01 0.00000E+00
 3.00000E-01 0.00000E+00
 4.00000E-01 0.00000E+00
 5.00000E-01 0.00000E+00
 7.50000E-01 0.00000E+00
 1.00000E+00 0.00000E+00
 1.20000E+00 0.00000E+00
 1.40000E+00 0.00000E+00
 1.60000E+00 0.00000E+00
 1.80000E+00 0.00000E+00
 2.00000E+00 0.00000E+00
 2.20000E+00 0.00000E+00
 2.40000E+00 0.00000E+00
 2.60000E+00 0.00000E+00
 2.80000E+00 0.00000E+00
 3.00000E+00 0.00000E+00
 3.20000E+00 0.00000E+00
 3.40000E+00 0.00000E+00
 3.60000E+00 0.00000E+00
 3.80000E+00 0.00000E+00
 4.00000E+00 0.00000E+00
 4.20000E+00 0.00000E+00
 4.40000E+00 1.47229E+01
 4.60000E+00 2.19931E+01
 4.80000E+00 2.71145E+01
 5.00000E+00 3.04388E+01
 5.50000E+00 3.44643E+01
 6.00000E+00 3.73109E+01
 6.50000E+00 4.07383E+01
 7.00000E+00 4.47831E+01
 7.50000E+00 4.94200E+01
 8.00000E+00 5.37177E+01
 8.50000E+00 5.53887E+01
 9.00000E+00 5.21004E+01
 9.50000E+00 4.50483E+01
 1.00000E+01 3.62773E+01
 1.10000E+01 2.09426E+01
 1.20000E+01 1.19545E+01
 1.30000E+01 7.85984E+00
 1.40000E+01 6.07698E+00
 1.50000E+01 5.27506E+00
 1.60000E+01 4.83559E+00
 1.70000E+01 4.58505E+00
 1.80000E+01 4.27244E+00
 1.90000E+01 3.99950E+00
 2.00000E+01 3.82232E+00
 2.10000E+01 3.62777E+00
 2.20000E+01 3.42630E+00
 2.30000E+01 3.27084E+00
 2.40000E+01 3.09180E+00
 2.50000E+01 2.87492E+00
 2.60000E+01 2.71936E+00
 2.70000E+01 2.55227E+00
 2.80000E+01 2.42015E+00
 2.90000E+01 2.31980E+00
 3.00000E+01 2.22350E+00
