# n + 208Pb: Gamma-ray intensity - 206Pb: Level  7 --> Level  0 - gamma energy    1.784080
# E-initial  =   1.784080 E-final=   0.000000
# E-threshold= 1.59668E+01
# # energies = 67
#    E         xs
 1.000E-11 0.00000E+00
 2.530E-08 0.00000E+00
 2.000E-07 0.00000E+00
 1.000E-06 0.00000E+00
 1.000E-03 0.00000E+00
 2.000E-03 0.00000E+00
 5.000E-03 0.00000E+00
 1.000E-02 0.00000E+00
 2.000E-02 0.00000E+00
 5.000E-02 0.00000E+00
 1.000E-01 0.00000E+00
 2.000E-01 0.00000E+00
 3.000E-01 0.00000E+00
 4.000E-01 0.00000E+00
 5.000E-01 0.00000E+00
 7.500E-01 0.00000E+00
 1.000E+00 0.00000E+00
 1.200E+00 0.00000E+00
 1.400E+00 0.00000E+00
 1.600E+00 0.00000E+00
 1.800E+00 0.00000E+00
 2.000E+00 0.00000E+00
 2.200E+00 0.00000E+00
 2.400E+00 0.00000E+00
 2.600E+00 0.00000E+00
 2.800E+00 0.00000E+00
 3.000E+00 0.00000E+00
 3.200E+00 0.00000E+00
 3.400E+00 0.00000E+00
 3.600E+00 0.00000E+00
 3.800E+00 0.00000E+00
 4.000E+00 0.00000E+00
 4.200E+00 0.00000E+00
 4.400E+00 0.00000E+00
 4.600E+00 0.00000E+00
 4.800E+00 0.00000E+00
 5.000E+00 0.00000E+00
 5.500E+00 0.00000E+00
 6.000E+00 0.00000E+00
 6.500E+00 0.00000E+00
 7.000E+00 0.00000E+00
 7.500E+00 0.00000E+00
 8.000E+00 0.00000E+00
 8.500E+00 0.00000E+00
 9.000E+00 0.00000E+00
 9.500E+00 0.00000E+00
 1.000E+01 0.00000E+00
 1.100E+01 0.00000E+00
 1.200E+01 0.00000E+00
 1.300E+01 0.00000E+00
 1.400E+01 0.00000E+00
 1.500E+01 0.00000E+00
 1.600E+01 6.75191E-06
 1.700E+01 3.53624E-02
 1.800E+01 3.21981E-01
 1.900E+01 8.84959E-01
 2.000E+01 1.52378E+00
 2.100E+01 2.06859E+00
 2.200E+01 2.45340E+00
 2.300E+01 2.72466E+00
 2.400E+01 2.90670E+00
 2.500E+01 2.99482E+00
 2.600E+01 2.95300E+00
 2.700E+01 2.78187E+00
 2.800E+01 2.48454E+00
 2.900E+01 2.13489E+00
 3.000E+01 1.78609E+00
