# n + 208Pb: Gamma-ray intensity - 208Pb: Level  7 --> Level  2 - gamma energy    0.763220
# E-initial  =   3.960960 E-final=   3.197740
# E-threshold= 3.98017E+00
# # energies = 67
#    E         xs
 1.000E-11 0.00000E+00
 2.530E-08 0.00000E+00
 2.000E-07 0.00000E+00
 1.000E-06 0.00000E+00
 1.000E-03 0.00000E+00
 2.000E-03 0.00000E+00
 5.000E-03 0.00000E+00
 1.000E-02 0.00000E+00
 2.000E-02 0.00000E+00
 5.000E-02 0.00000E+00
 1.000E-01 0.00000E+00
 2.000E-01 0.00000E+00
 3.000E-01 0.00000E+00
 4.000E-01 0.00000E+00
 5.000E-01 0.00000E+00
 7.500E-01 0.00000E+00
 1.000E+00 0.00000E+00
 1.200E+00 0.00000E+00
 1.400E+00 0.00000E+00
 1.600E+00 0.00000E+00
 1.800E+00 0.00000E+00
 2.000E+00 0.00000E+00
 2.200E+00 0.00000E+00
 2.400E+00 0.00000E+00
 2.600E+00 0.00000E+00
 2.800E+00 0.00000E+00
 3.000E+00 0.00000E+00
 3.200E+00 0.00000E+00
 3.400E+00 0.00000E+00
 3.600E+00 0.00000E+00
 3.800E+00 0.00000E+00
 4.000E+00 9.94821E+00
 4.200E+00 3.18954E+01
 4.400E+00 4.11123E+01
 4.600E+00 4.51189E+01
 4.800E+00 4.61504E+01
 5.000E+00 4.59819E+01
 5.500E+00 4.45214E+01
 6.000E+00 4.31432E+01
 6.500E+00 4.23710E+01
 7.000E+00 4.25165E+01
 7.500E+00 4.34918E+01
 8.000E+00 4.36230E+01
 8.500E+00 4.11952E+01
 9.000E+00 3.61077E+01
 9.500E+00 2.99837E+01
 1.000E+01 2.38707E+01
 1.100E+01 1.43076E+01
 1.200E+01 9.07535E+00
 1.300E+01 6.55241E+00
 1.400E+01 5.34186E+00
 1.500E+01 4.71904E+00
 1.600E+01 4.33798E+00
 1.700E+01 4.10805E+00
 1.800E+01 3.85380E+00
 1.900E+01 3.65134E+00
 2.000E+01 3.48286E+00
 2.100E+01 3.32883E+00
 2.200E+01 3.19550E+00
 2.300E+01 3.05629E+00
 2.400E+01 2.90791E+00
 2.500E+01 2.78509E+00
 2.600E+01 2.65236E+00
 2.700E+01 2.55356E+00
 2.800E+01 2.44485E+00
 2.900E+01 2.36945E+00
 3.000E+01 2.27029E+00
