# n + 208Pb: Gamma-ray intensity - 207Pb: Level  2 --> Level  0 - gamma energy    0.897800
# E-initial  =   0.897800 E-final=   0.000000
# E-threshold= 8.30576E+00
# # energies = 67
#    E         xs
 1.000E-11 0.00000E+00
 2.530E-08 0.00000E+00
 2.000E-07 0.00000E+00
 1.000E-06 0.00000E+00
 1.000E-03 0.00000E+00
 2.000E-03 0.00000E+00
 5.000E-03 0.00000E+00
 1.000E-02 0.00000E+00
 2.000E-02 0.00000E+00
 5.000E-02 0.00000E+00
 1.000E-01 0.00000E+00
 2.000E-01 0.00000E+00
 3.000E-01 0.00000E+00
 4.000E-01 0.00000E+00
 5.000E-01 0.00000E+00
 7.500E-01 0.00000E+00
 1.000E+00 0.00000E+00
 1.200E+00 0.00000E+00
 1.400E+00 0.00000E+00
 1.600E+00 0.00000E+00
 1.800E+00 0.00000E+00
 2.000E+00 0.00000E+00
 2.200E+00 0.00000E+00
 2.400E+00 0.00000E+00
 2.600E+00 0.00000E+00
 2.800E+00 0.00000E+00
 3.000E+00 0.00000E+00
 3.200E+00 0.00000E+00
 3.400E+00 0.00000E+00
 3.600E+00 0.00000E+00
 3.800E+00 0.00000E+00
 4.000E+00 0.00000E+00
 4.200E+00 0.00000E+00
 4.400E+00 0.00000E+00
 4.600E+00 0.00000E+00
 4.800E+00 0.00000E+00
 5.000E+00 0.00000E+00
 5.500E+00 0.00000E+00
 6.000E+00 0.00000E+00
 6.500E+00 0.00000E+00
 7.000E+00 0.00000E+00
 7.500E+00 0.00000E+00
 8.000E+00 0.00000E+00
 8.500E+00 9.40937E-01
 9.000E+00 1.90150E+01
 9.500E+00 5.74578E+01
 1.000E+01 1.02650E+02
 1.100E+01 1.86092E+02
 1.200E+01 2.30289E+02
 1.300E+01 2.33416E+02
 1.400E+01 2.16746E+02
 1.500E+01 1.96221E+02
 1.600E+01 1.70395E+02
 1.700E+01 1.39543E+02
 1.800E+01 1.09996E+02
 1.900E+01 8.67728E+01
 2.000E+01 6.95221E+01
 2.100E+01 5.68458E+01
 2.200E+01 4.81054E+01
 2.300E+01 4.21134E+01
 2.400E+01 3.77137E+01
 2.500E+01 3.45827E+01
 2.600E+01 3.22767E+01
 2.700E+01 3.01778E+01
 2.800E+01 2.89017E+01
 2.900E+01 2.74112E+01
 3.000E+01 2.61942E+01
