# n + 208Pb: Gamma-ray intensity - 208Pb: Level 16 --> Level  0 - gamma energy    4.159000
# E-initial  =   4.159000 E-final=   0.000000
# E-threshold= 4.17917E+00
# # energies = 67
#    E         xs
 1.000E-11 0.00000E+00
 2.530E-08 0.00000E+00
 2.000E-07 0.00000E+00
 1.000E-06 0.00000E+00
 1.000E-03 0.00000E+00
 2.000E-03 0.00000E+00
 5.000E-03 0.00000E+00
 1.000E-02 0.00000E+00
 2.000E-02 0.00000E+00
 5.000E-02 0.00000E+00
 1.000E-01 0.00000E+00
 2.000E-01 0.00000E+00
 3.000E-01 0.00000E+00
 4.000E-01 0.00000E+00
 5.000E-01 0.00000E+00
 7.500E-01 0.00000E+00
 1.000E+00 0.00000E+00
 1.200E+00 0.00000E+00
 1.400E+00 0.00000E+00
 1.600E+00 0.00000E+00
 1.800E+00 0.00000E+00
 2.000E+00 0.00000E+00
 2.200E+00 0.00000E+00
 2.400E+00 0.00000E+00
 2.600E+00 0.00000E+00
 2.800E+00 0.00000E+00
 3.000E+00 0.00000E+00
 3.200E+00 0.00000E+00
 3.400E+00 0.00000E+00
 3.600E+00 0.00000E+00
 3.800E+00 0.00000E+00
 4.000E+00 0.00000E+00
 4.200E+00 5.56474E+00
 4.400E+00 2.93916E+01
 4.600E+00 3.97878E+01
 4.800E+00 4.36303E+01
 5.000E+00 4.52472E+01
 5.500E+00 4.75073E+01
 6.000E+00 4.72724E+01
 6.500E+00 4.35967E+01
 7.000E+00 3.91847E+01
 7.500E+00 3.57990E+01
 8.000E+00 3.09853E+01
 8.500E+00 2.54636E+01
 9.000E+00 2.01858E+01
 9.500E+00 1.57022E+01
 1.000E+01 1.18676E+01
 1.100E+01 6.98199E+00
 1.200E+01 4.66825E+00
 1.300E+01 3.53625E+00
 1.400E+01 3.01989E+00
 1.500E+01 2.67208E+00
 1.600E+01 2.45241E+00
 1.700E+01 2.34405E+00
 1.800E+01 2.20841E+00
 1.900E+01 2.06429E+00
 2.000E+01 2.01574E+00
 2.100E+01 1.88936E+00
 2.200E+01 1.86723E+00
 2.300E+01 1.74746E+00
 2.400E+01 1.69929E+00
 2.500E+01 1.63859E+00
 2.600E+01 1.53295E+00
 2.700E+01 1.48657E+00
 2.800E+01 1.44847E+00
 2.900E+01 1.42458E+00
 3.000E+01 1.36188E+00
