# n + 208Pb: Gamma-ray intensity - 209Pb: Level  2 --> Level  0 - gamma energy    1.423000
# E-initial  =   1.423000 E-final=   0.000000
# E-threshold= 0.00000E+00
# # energies =    67
#    E           xs
 1.00000E-11 0.00000E+00
 2.53000E-08 0.00000E+00
 2.00000E-07 0.00000E+00
 1.00000E-06 0.00000E+00
 1.00000E-03 0.00000E+00
 2.00000E-03 0.00000E+00
 5.00000E-03 0.00000E+00
 1.00000E-02 0.00000E+00
 2.00000E-02 0.00000E+00
 5.00000E-02 1.06778E-09
 1.00000E-01 3.28031E-08
 2.00000E-01 3.23506E-07
 3.00000E-01 3.24030E-05
 4.00000E-01 9.00938E-05
 5.00000E-01 1.64880E-04
 7.50000E-01 3.72990E-04
 1.00000E+00 2.10735E-03
 1.20000E+00 3.78912E-03
 1.40000E+00 7.12901E-03
 1.60000E+00 1.11925E-02
 1.80000E+00 1.67906E-02
 2.00000E+00 2.55232E-02
 2.20000E+00 3.67350E-02
 2.40000E+00 5.18758E-02
 2.60000E+00 7.20669E-02
 2.80000E+00 9.09785E-02
 3.00000E+00 1.01245E-01
 3.20000E+00 1.11413E-01
 3.40000E+00 5.36818E-02
 3.60000E+00 3.89405E-02
 3.80000E+00 3.11768E-02
 4.00000E+00 2.32994E-02
 4.20000E+00 1.22017E-02
 4.40000E+00 9.35506E-03
 4.60000E+00 8.16227E-03
 4.80000E+00 1.29947E-02
 5.00000E+00 1.29190E-02
 5.50000E+00 1.60798E-02
 6.00000E+00 2.08771E-02
 6.50000E+00 2.88251E-02
 7.00000E+00 4.13192E-02
 7.50000E+00 6.17033E-02
 8.00000E+00 9.44912E-02
 8.50000E+00 1.44949E-01
 9.00000E+00 2.04327E-01
 9.50000E+00 2.44129E-01
 1.00000E+01 2.50867E-01
 1.10000E+01 2.41349E-01
 1.20000E+01 2.60356E-01
 1.30000E+01 2.86001E-01
 1.40000E+01 2.92987E-01
 1.50000E+01 2.69889E-01
 1.60000E+01 2.24875E-01
 1.70000E+01 1.84840E-01
 1.80000E+01 1.52815E-01
 1.90000E+01 1.35146E-01
 2.00000E+01 1.21778E-01
 2.10000E+01 1.05911E-01
 2.20000E+01 9.71046E-02
 2.30000E+01 8.65024E-02
 2.40000E+01 7.85920E-02
 2.50000E+01 7.31054E-02
 2.60000E+01 6.85261E-02
 2.70000E+01 6.47300E-02
 2.80000E+01 6.16340E-02
 2.90000E+01 5.92163E-02
 3.00000E+01 5.71181E-02
