# n + 208Pb: Gamma-ray intensity - 208Pb: Level  7 --> Level  2 - gamma energy    0.763220
# E-initial  =   3.960960 E-final=   3.197740
# E-threshold= 3.98017E+00
# # energies = 67
#    E         xs
 1.000E-11 0.00000E+00
 2.530E-08 0.00000E+00
 2.000E-07 0.00000E+00
 1.000E-06 0.00000E+00
 1.000E-03 0.00000E+00
 2.000E-03 0.00000E+00
 5.000E-03 0.00000E+00
 1.000E-02 0.00000E+00
 2.000E-02 0.00000E+00
 5.000E-02 0.00000E+00
 1.000E-01 0.00000E+00
 2.000E-01 0.00000E+00
 3.000E-01 0.00000E+00
 4.000E-01 0.00000E+00
 5.000E-01 0.00000E+00
 7.500E-01 0.00000E+00
 1.000E+00 0.00000E+00
 1.200E+00 0.00000E+00
 1.400E+00 0.00000E+00
 1.600E+00 0.00000E+00
 1.800E+00 0.00000E+00
 2.000E+00 0.00000E+00
 2.200E+00 0.00000E+00
 2.400E+00 0.00000E+00
 2.600E+00 0.00000E+00
 2.800E+00 0.00000E+00
 3.000E+00 0.00000E+00
 3.200E+00 0.00000E+00
 3.400E+00 0.00000E+00
 3.600E+00 0.00000E+00
 3.800E+00 0.00000E+00
 4.000E+00 8.21926E+00
 4.200E+00 2.63563E+01
 4.400E+00 3.27268E+01
 4.600E+00 3.27347E+01
 4.800E+00 3.05393E+01
 5.000E+00 2.84625E+01
 5.500E+00 2.61217E+01
 6.000E+00 2.58617E+01
 6.500E+00 2.62220E+01
 7.000E+00 2.69348E+01
 7.500E+00 2.78015E+01
 8.000E+00 2.78127E+01
 8.500E+00 2.56510E+01
 9.000E+00 2.17218E+01
 9.500E+00 1.73231E+01
 1.000E+01 1.33189E+01
 1.100E+01 7.82613E+00
 1.200E+01 5.22442E+00
 1.300E+01 4.10680E+00
 1.400E+01 3.57418E+00
 1.500E+01 3.29299E+00
 1.600E+01 3.10078E+00
 1.700E+01 2.98451E+00
 1.800E+01 2.83852E+00
 1.900E+01 2.72166E+00
 2.000E+01 2.61008E+00
 2.100E+01 2.51514E+00
 2.200E+01 2.41152E+00
 2.300E+01 2.32802E+00
 2.400E+01 2.22479E+00
 2.500E+01 2.13896E+00
 2.600E+01 2.04865E+00
 2.700E+01 1.97579E+00
 2.800E+01 1.91242E+00
 2.900E+01 1.84619E+00
 3.000E+01 1.78668E+00
