# n + 208Pb: Gamma-ray intensity - 208Pb: Level  6 --> Level  3 - gamma energy    0.471500
# E-initial  =   3.946578 E-final=   3.475078
# E-threshold= 3.96572E+00
# # energies =    67
#    E           xs
 1.00000E-11 0.00000E+00
 2.53000E-08 0.00000E+00
 2.00000E-07 0.00000E+00
 1.00000E-06 0.00000E+00
 1.00000E-03 0.00000E+00
 2.00000E-03 0.00000E+00
 5.00000E-03 0.00000E+00
 1.00000E-02 0.00000E+00
 2.00000E-02 0.00000E+00
 5.00000E-02 0.00000E+00
 1.00000E-01 0.00000E+00
 2.00000E-01 0.00000E+00
 3.00000E-01 0.00000E+00
 4.00000E-01 0.00000E+00
 5.00000E-01 0.00000E+00
 7.50000E-01 0.00000E+00
 1.00000E+00 0.00000E+00
 1.20000E+00 0.00000E+00
 1.40000E+00 0.00000E+00
 1.60000E+00 0.00000E+00
 1.80000E+00 0.00000E+00
 2.00000E+00 0.00000E+00
 2.20000E+00 0.00000E+00
 2.40000E+00 0.00000E+00
 2.60000E+00 0.00000E+00
 2.80000E+00 0.00000E+00
 3.00000E+00 0.00000E+00
 3.20000E+00 0.00000E+00
 3.40000E+00 0.00000E+00
 3.60000E+00 0.00000E+00
 3.80000E+00 0.00000E+00
 4.00000E+00 4.18118E+00
 4.20000E+00 1.19551E+01
 4.40000E+00 1.55006E+01
 4.60000E+00 1.65222E+01
 4.80000E+00 1.64771E+01
 5.00000E+00 1.59203E+01
 5.50000E+00 1.44420E+01
 6.00000E+00 1.32550E+01
 6.50000E+00 1.23315E+01
 7.00000E+00 1.17566E+01
 7.50000E+00 1.14436E+01
 8.00000E+00 1.06157E+01
 8.50000E+00 9.03354E+00
 9.00000E+00 7.21321E+00
 9.50000E+00 5.41998E+00
 1.00000E+01 3.94017E+00
 1.10000E+01 2.00668E+00
 1.20000E+01 1.14583E+00
 1.30000E+01 7.77237E-01
 1.40000E+01 6.19604E-01
 1.50000E+01 5.38911E-01
 1.60000E+01 4.84700E-01
 1.70000E+01 4.53960E-01
 1.80000E+01 4.15806E-01
 1.90000E+01 3.85588E-01
 2.00000E+01 3.60381E-01
 2.10000E+01 3.39365E-01
 2.20000E+01 3.16396E-01
 2.30000E+01 2.98230E-01
 2.40000E+01 2.80204E-01
 2.50000E+01 2.56737E-01
 2.60000E+01 2.40677E-01
 2.70000E+01 2.29779E-01
 2.80000E+01 2.18362E-01
 2.90000E+01 2.08699E-01
 3.00000E+01 1.99343E-01
