# n + 208Pb: Gamma-ray intensity - 208Pb: Level  8 --> Level  2 - gamma energy    0.797960
# E-initial  =   3.995700 E-final=   3.197740
# E-threshold= 4.01508E+00
# # energies = 67
#    E         xs
 1.000E-11 0.00000E+00
 2.530E-08 0.00000E+00
 2.000E-07 0.00000E+00
 1.000E-06 0.00000E+00
 1.000E-03 0.00000E+00
 2.000E-03 0.00000E+00
 5.000E-03 0.00000E+00
 1.000E-02 0.00000E+00
 2.000E-02 0.00000E+00
 5.000E-02 0.00000E+00
 1.000E-01 0.00000E+00
 2.000E-01 0.00000E+00
 3.000E-01 0.00000E+00
 4.000E-01 0.00000E+00
 5.000E-01 0.00000E+00
 7.500E-01 0.00000E+00
 1.000E+00 0.00000E+00
 1.200E+00 0.00000E+00
 1.400E+00 0.00000E+00
 1.600E+00 0.00000E+00
 1.800E+00 0.00000E+00
 2.000E+00 0.00000E+00
 2.200E+00 0.00000E+00
 2.400E+00 0.00000E+00
 2.600E+00 0.00000E+00
 2.800E+00 0.00000E+00
 3.000E+00 0.00000E+00
 3.200E+00 0.00000E+00
 3.400E+00 0.00000E+00
 3.600E+00 0.00000E+00
 3.800E+00 0.00000E+00
 4.000E+00 0.00000E+00
 4.200E+00 1.05221E+01
 4.400E+00 1.43978E+01
 4.600E+00 1.62299E+01
 4.800E+00 1.67881E+01
 5.000E+00 1.67802E+01
 5.500E+00 1.61744E+01
 6.000E+00 1.55969E+01
 6.500E+00 1.52620E+01
 7.000E+00 1.52634E+01
 7.500E+00 1.55783E+01
 8.000E+00 1.56069E+01
 8.500E+00 1.47289E+01
 9.000E+00 1.29053E+01
 9.500E+00 1.07169E+01
 1.000E+01 8.53636E+00
 1.100E+01 5.13145E+00
 1.200E+01 3.27041E+00
 1.300E+01 2.37203E+00
 1.400E+01 1.93999E+00
 1.500E+01 1.71692E+00
 1.600E+01 1.58018E+00
 1.700E+01 1.49782E+00
 1.800E+01 1.40703E+00
 1.900E+01 1.33465E+00
 2.000E+01 1.27439E+00
 2.100E+01 1.21919E+00
 2.200E+01 1.17199E+00
 2.300E+01 1.12175E+00
 2.400E+01 1.06850E+00
 2.500E+01 1.02480E+00
 2.600E+01 9.76999E-01
 2.700E+01 9.41316E-01
 2.800E+01 9.01561E-01
 2.900E+01 8.74575E-01
 3.000E+01 8.38579E-01
