# n + 208Pb: Gamma-ray intensity - 206Pb: Level  9 --> Level  4 - gamma energy    0.681100
# E-initial  =   2.147900 E-final=   1.466800
# E-threshold= 1.63323E+01
# # energies = 67
#    E         xs
 1.000E-11 0.00000E+00
 2.530E-08 0.00000E+00
 2.000E-07 0.00000E+00
 1.000E-06 0.00000E+00
 1.000E-03 0.00000E+00
 2.000E-03 0.00000E+00
 5.000E-03 0.00000E+00
 1.000E-02 0.00000E+00
 2.000E-02 0.00000E+00
 5.000E-02 0.00000E+00
 1.000E-01 0.00000E+00
 2.000E-01 0.00000E+00
 3.000E-01 0.00000E+00
 4.000E-01 0.00000E+00
 5.000E-01 0.00000E+00
 7.500E-01 0.00000E+00
 1.000E+00 0.00000E+00
 1.200E+00 0.00000E+00
 1.400E+00 0.00000E+00
 1.600E+00 0.00000E+00
 1.800E+00 0.00000E+00
 2.000E+00 0.00000E+00
 2.200E+00 0.00000E+00
 2.400E+00 0.00000E+00
 2.600E+00 0.00000E+00
 2.800E+00 0.00000E+00
 3.000E+00 0.00000E+00
 3.200E+00 0.00000E+00
 3.400E+00 0.00000E+00
 3.600E+00 0.00000E+00
 3.800E+00 0.00000E+00
 4.000E+00 0.00000E+00
 4.200E+00 0.00000E+00
 4.400E+00 0.00000E+00
 4.600E+00 0.00000E+00
 4.800E+00 0.00000E+00
 5.000E+00 0.00000E+00
 5.500E+00 0.00000E+00
 6.000E+00 0.00000E+00
 6.500E+00 0.00000E+00
 7.000E+00 0.00000E+00
 7.500E+00 0.00000E+00
 8.000E+00 0.00000E+00
 8.500E+00 0.00000E+00
 9.000E+00 0.00000E+00
 9.500E+00 0.00000E+00
 1.000E+01 0.00000E+00
 1.100E+01 0.00000E+00
 1.200E+01 0.00000E+00
 1.300E+01 0.00000E+00
 1.400E+01 0.00000E+00
 1.500E+01 0.00000E+00
 1.600E+01 0.00000E+00
 1.700E+01 4.46953E-02
 1.800E+01 7.83693E-01
 1.900E+01 2.55398E+00
 2.000E+01 4.79955E+00
 2.100E+01 6.86570E+00
 2.200E+01 8.41683E+00
 2.300E+01 9.56336E+00
 2.400E+01 1.03817E+01
 2.500E+01 1.08698E+01
 2.600E+01 1.08855E+01
 2.700E+01 1.03880E+01
 2.800E+01 9.37496E+00
 2.900E+01 8.11753E+00
 3.000E+01 6.80663E+00
