# n + 208Pb: Gamma-ray intensity - 208Pb: Level  4 --> Level  2 - gamma energy    0.510700
# E-initial  =   3.708440 E-final=   3.197740
# E-threshold= 3.72643E+00
# # energies = 67
#    E         xs
 1.000E-11 0.00000E+00
 2.530E-08 0.00000E+00
 2.000E-07 0.00000E+00
 1.000E-06 0.00000E+00
 1.000E-03 0.00000E+00
 2.000E-03 0.00000E+00
 5.000E-03 0.00000E+00
 1.000E-02 0.00000E+00
 2.000E-02 0.00000E+00
 5.000E-02 0.00000E+00
 1.000E-01 0.00000E+00
 2.000E-01 0.00000E+00
 3.000E-01 0.00000E+00
 4.000E-01 0.00000E+00
 5.000E-01 0.00000E+00
 7.500E-01 0.00000E+00
 1.000E+00 0.00000E+00
 1.200E+00 0.00000E+00
 1.400E+00 0.00000E+00
 1.600E+00 0.00000E+00
 1.800E+00 0.00000E+00
 2.000E+00 0.00000E+00
 2.200E+00 0.00000E+00
 2.400E+00 0.00000E+00
 2.600E+00 0.00000E+00
 2.800E+00 0.00000E+00
 3.000E+00 0.00000E+00
 3.200E+00 0.00000E+00
 3.400E+00 0.00000E+00
 3.600E+00 0.00000E+00
 3.800E+00 4.38687E+01
 4.000E+00 1.14633E+02
 4.200E+00 1.74591E+02
 4.400E+00 2.08766E+02
 4.600E+00 2.26914E+02
 4.800E+00 2.36075E+02
 5.000E+00 2.41530E+02
 5.500E+00 2.51802E+02
 6.000E+00 2.63103E+02
 6.500E+00 2.80008E+02
 7.000E+00 3.03951E+02
 7.500E+00 3.33726E+02
 8.000E+00 3.60497E+02
 8.500E+00 3.73126E+02
 9.000E+00 3.62790E+02
 9.500E+00 3.31291E+02
 1.000E+01 2.87504E+02
 1.100E+01 1.95552E+02
 1.200E+01 1.28501E+02
 1.300E+01 9.26086E+01
 1.400E+01 7.36576E+01
 1.500E+01 6.43365E+01
 1.600E+01 5.90565E+01
 1.700E+01 5.63732E+01
 1.800E+01 5.32509E+01
 1.900E+01 5.10812E+01
 2.000E+01 4.88239E+01
 2.100E+01 4.68257E+01
 2.200E+01 4.45291E+01
 2.300E+01 4.30713E+01
 2.400E+01 4.08063E+01
 2.500E+01 3.92310E+01
 2.600E+01 3.72178E+01
 2.700E+01 3.58412E+01
 2.800E+01 3.48660E+01
 2.900E+01 3.30357E+01
 3.000E+01 3.19420E+01
