# n + 208Pb: Gamma-ray intensity - 208Pb: Level 19 --> Level  3 - gamma energy    0.821482
# E-initial  =   4.296560 E-final=   3.475078
# E-threshold= 4.31740E+00
# # energies =    67
#    E           xs
 1.00000E-11 0.00000E+00
 2.53000E-08 0.00000E+00
 2.00000E-07 0.00000E+00
 1.00000E-06 0.00000E+00
 1.00000E-03 0.00000E+00
 2.00000E-03 0.00000E+00
 5.00000E-03 0.00000E+00
 1.00000E-02 0.00000E+00
 2.00000E-02 0.00000E+00
 5.00000E-02 0.00000E+00
 1.00000E-01 0.00000E+00
 2.00000E-01 0.00000E+00
 3.00000E-01 0.00000E+00
 4.00000E-01 0.00000E+00
 5.00000E-01 0.00000E+00
 7.50000E-01 0.00000E+00
 1.00000E+00 0.00000E+00
 1.20000E+00 0.00000E+00
 1.40000E+00 0.00000E+00
 1.60000E+00 0.00000E+00
 1.80000E+00 0.00000E+00
 2.00000E+00 0.00000E+00
 2.20000E+00 0.00000E+00
 2.40000E+00 0.00000E+00
 2.60000E+00 0.00000E+00
 2.80000E+00 0.00000E+00
 3.00000E+00 0.00000E+00
 3.20000E+00 0.00000E+00
 3.40000E+00 0.00000E+00
 3.60000E+00 0.00000E+00
 3.80000E+00 0.00000E+00
 4.00000E+00 0.00000E+00
 4.20000E+00 0.00000E+00
 4.40000E+00 6.34631E+00
 4.60000E+00 1.20919E+01
 4.80000E+00 1.60208E+01
 5.00000E+00 1.80097E+01
 5.50000E+00 1.81851E+01
 6.00000E+00 1.69075E+01
 6.50000E+00 1.59553E+01
 7.00000E+00 1.53332E+01
 7.50000E+00 1.51078E+01
 8.00000E+00 1.47165E+01
 8.50000E+00 1.34318E+01
 9.00000E+00 1.13016E+01
 9.50000E+00 8.94307E+00
 1.00000E+01 6.77106E+00
 1.10000E+01 3.69674E+00
 1.20000E+01 2.22204E+00
 1.30000E+01 1.58346E+00
 1.40000E+01 1.30300E+00
 1.50000E+01 1.16148E+00
 1.60000E+01 1.06977E+00
 1.70000E+01 1.01322E+00
 1.80000E+01 9.51014E-01
 1.90000E+01 8.99034E-01
 2.00000E+01 8.56020E-01
 2.10000E+01 8.16517E-01
 2.20000E+01 7.76835E-01
 2.30000E+01 7.40582E-01
 2.40000E+01 7.04508E-01
 2.50000E+01 6.66401E-01
 2.60000E+01 6.33101E-01
 2.70000E+01 6.08619E-01
 2.80000E+01 5.81728E-01
 2.90000E+01 5.60630E-01
 3.00000E+01 5.39794E-01
