# n + 208Pb: Gamma-ray intensity - 208Pb: Level 29 --> Level  2 - gamma energy    1.511020
# E-initial  =   4.708730 E-final=   3.197710
# E-threshold= 4.73157E+00
# # energies = 67
#    E         xs
 1.000E-11 0.00000E+00
 2.530E-08 0.00000E+00
 2.000E-07 0.00000E+00
 1.000E-06 0.00000E+00
 1.000E-03 0.00000E+00
 2.000E-03 0.00000E+00
 5.000E-03 0.00000E+00
 1.000E-02 0.00000E+00
 2.000E-02 0.00000E+00
 5.000E-02 0.00000E+00
 1.000E-01 0.00000E+00
 2.000E-01 0.00000E+00
 3.000E-01 0.00000E+00
 4.000E-01 0.00000E+00
 5.000E-01 0.00000E+00
 7.500E-01 0.00000E+00
 1.000E+00 0.00000E+00
 1.200E+00 0.00000E+00
 1.400E+00 0.00000E+00
 1.600E+00 0.00000E+00
 1.800E+00 0.00000E+00
 2.000E+00 0.00000E+00
 2.200E+00 0.00000E+00
 2.400E+00 0.00000E+00
 2.600E+00 0.00000E+00
 2.800E+00 0.00000E+00
 3.000E+00 0.00000E+00
 3.200E+00 0.00000E+00
 3.400E+00 0.00000E+00
 3.600E+00 0.00000E+00
 3.800E+00 0.00000E+00
 4.000E+00 0.00000E+00
 4.200E+00 0.00000E+00
 4.400E+00 0.00000E+00
 4.600E+00 0.00000E+00
 4.800E+00 2.23272E+00
 5.000E+00 5.34732E+00
 5.500E+00 8.59178E+00
 6.000E+00 8.65746E+00
 6.500E+00 8.47572E+00
 7.000E+00 8.39605E+00
 7.500E+00 8.31001E+00
 8.000E+00 8.12174E+00
 8.500E+00 7.66466E+00
 9.000E+00 6.92572E+00
 9.500E+00 6.08299E+00
 1.000E+01 5.25736E+00
 1.100E+01 3.96028E+00
 1.200E+01 3.23410E+00
 1.300E+01 2.86323E+00
 1.400E+01 2.65432E+00
 1.500E+01 2.49975E+00
 1.600E+01 2.37125E+00
 1.700E+01 2.26491E+00
 1.800E+01 2.17551E+00
 1.900E+01 2.10000E+00
 2.000E+01 2.03454E+00
 2.100E+01 1.96604E+00
 2.200E+01 1.89627E+00
 2.300E+01 1.82690E+00
 2.400E+01 1.75971E+00
 2.500E+01 1.69991E+00
 2.600E+01 1.64610E+00
 2.700E+01 1.60033E+00
 2.800E+01 1.55656E+00
 2.900E+01 1.51467E+00
 3.000E+01 1.47243E+00
