# n + 208Pb: Gamma-ray intensity - 206Pb: Level  5 --> Level  3 - gamma energy    0.343490
# E-initial  =   1.683960 E-final=   1.340470
# E-threshold= 1.58661E+01
# # energies = 67
#    E         xs
 1.000E-11 0.00000E+00
 2.530E-08 0.00000E+00
 2.000E-07 0.00000E+00
 1.000E-06 0.00000E+00
 1.000E-03 0.00000E+00
 2.000E-03 0.00000E+00
 5.000E-03 0.00000E+00
 1.000E-02 0.00000E+00
 2.000E-02 0.00000E+00
 5.000E-02 0.00000E+00
 1.000E-01 0.00000E+00
 2.000E-01 0.00000E+00
 3.000E-01 0.00000E+00
 4.000E-01 0.00000E+00
 5.000E-01 0.00000E+00
 7.500E-01 0.00000E+00
 1.000E+00 0.00000E+00
 1.200E+00 0.00000E+00
 1.400E+00 0.00000E+00
 1.600E+00 0.00000E+00
 1.800E+00 0.00000E+00
 2.000E+00 0.00000E+00
 2.200E+00 0.00000E+00
 2.400E+00 0.00000E+00
 2.600E+00 0.00000E+00
 2.800E+00 0.00000E+00
 3.000E+00 0.00000E+00
 3.200E+00 0.00000E+00
 3.400E+00 0.00000E+00
 3.600E+00 0.00000E+00
 3.800E+00 0.00000E+00
 4.000E+00 0.00000E+00
 4.200E+00 0.00000E+00
 4.400E+00 0.00000E+00
 4.600E+00 0.00000E+00
 4.800E+00 0.00000E+00
 5.000E+00 0.00000E+00
 5.500E+00 0.00000E+00
 6.000E+00 0.00000E+00
 6.500E+00 0.00000E+00
 7.000E+00 0.00000E+00
 7.500E+00 0.00000E+00
 8.000E+00 0.00000E+00
 8.500E+00 0.00000E+00
 9.000E+00 0.00000E+00
 9.500E+00 0.00000E+00
 1.000E+01 0.00000E+00
 1.100E+01 0.00000E+00
 1.200E+01 0.00000E+00
 1.300E+01 0.00000E+00
 1.400E+01 0.00000E+00
 1.500E+01 0.00000E+00
 1.600E+01 7.86910E-03
 1.700E+01 5.18944E+00
 1.800E+01 3.32020E+01
 1.900E+01 8.10137E+01
 2.000E+01 1.32008E+02
 2.100E+01 1.73043E+02
 2.200E+01 2.00459E+02
 2.300E+01 2.16035E+02
 2.400E+01 2.22774E+02
 2.500E+01 2.19559E+02
 2.600E+01 2.04003E+02
 2.700E+01 1.78022E+02
 2.800E+01 1.47210E+02
 2.900E+01 1.18899E+02
 3.000E+01 9.38344E+01
