# n + 208Pb: Gamma-ray intensity - 208Pb: Level  5 --> Level  4 - gamma energy    0.211360
# E-initial  =   3.919800 E-final=   3.708440
# E-threshold= 3.93881E+00
# # energies = 66
#    E         xs
 1.000E-11 0.00000E+00
 2.530E-08 0.00000E+00
 1.000E-06 0.00000E+00
 1.000E-03 0.00000E+00
 2.000E-03 0.00000E+00
 5.000E-03 0.00000E+00
 1.000E-02 0.00000E+00
 2.000E-02 0.00000E+00
 5.000E-02 0.00000E+00
 1.000E-01 0.00000E+00
 2.000E-01 0.00000E+00
 3.000E-01 0.00000E+00
 4.000E-01 0.00000E+00
 5.000E-01 0.00000E+00
 7.500E-01 0.00000E+00
 1.000E+00 0.00000E+00
 1.200E+00 0.00000E+00
 1.400E+00 0.00000E+00
 1.600E+00 0.00000E+00
 1.800E+00 0.00000E+00
 2.000E+00 0.00000E+00
 2.200E+00 0.00000E+00
 2.400E+00 0.00000E+00
 2.600E+00 0.00000E+00
 2.800E+00 0.00000E+00
 3.000E+00 0.00000E+00
 3.200E+00 0.00000E+00
 3.400E+00 0.00000E+00
 3.600E+00 0.00000E+00
 3.800E+00 0.00000E+00
 4.000E+00 1.47184E+01
 4.200E+00 3.61818E+01
 4.400E+00 6.09409E+01
 4.600E+00 7.47415E+01
 4.800E+00 8.16624E+01
 5.000E+00 8.50376E+01
 5.500E+00 9.00939E+01
 6.000E+00 9.65884E+01
 6.500E+00 1.05051E+02
 7.000E+00 1.15305E+02
 7.500E+00 1.26921E+02
 8.000E+00 1.36751E+02
 8.500E+00 1.39505E+02
 9.000E+00 1.30921E+02
 9.500E+00 1.13374E+02
 1.000E+01 9.26933E+01
 1.100E+01 5.65018E+01
 1.200E+01 3.52969E+01
 1.300E+01 2.59672E+01
 1.400E+01 2.17381E+01
 1.500E+01 1.97460E+01
 1.600E+01 1.85848E+01
 1.700E+01 1.78840E+01
 1.800E+01 1.68671E+01
 1.900E+01 1.61470E+01
 2.000E+01 1.54111E+01
 2.100E+01 1.47414E+01
 2.200E+01 1.40115E+01
 2.300E+01 1.35503E+01
 2.400E+01 1.27419E+01
 2.500E+01 1.22042E+01
 2.600E+01 1.15118E+01
 2.700E+01 1.10978E+01
 2.800E+01 1.07559E+01
 2.900E+01 1.01259E+01
 3.000E+01 9.78722E+00
