# n + 208Pb: Gamma-ray intensity - 208Pb: Level  3 --> Level  1 - gamma energy    0.860560
# E-initial  =   3.475110 E-final=   2.614550
# E-threshold= 3.49196E+00
# # energies = 67
#    E         xs
 1.000E-11 0.00000E+00
 2.530E-08 0.00000E+00
 2.000E-07 0.00000E+00
 1.000E-06 0.00000E+00
 1.000E-03 0.00000E+00
 2.000E-03 0.00000E+00
 5.000E-03 0.00000E+00
 1.000E-02 0.00000E+00
 2.000E-02 0.00000E+00
 5.000E-02 0.00000E+00
 1.000E-01 0.00000E+00
 2.000E-01 0.00000E+00
 3.000E-01 0.00000E+00
 4.000E-01 0.00000E+00
 5.000E-01 0.00000E+00
 7.500E-01 0.00000E+00
 1.000E+00 0.00000E+00
 1.200E+00 0.00000E+00
 1.400E+00 0.00000E+00
 1.600E+00 0.00000E+00
 1.800E+00 0.00000E+00
 2.000E+00 0.00000E+00
 2.200E+00 0.00000E+00
 2.400E+00 0.00000E+00
 2.600E+00 0.00000E+00
 2.800E+00 0.00000E+00
 3.000E+00 0.00000E+00
 3.200E+00 0.00000E+00
 3.400E+00 0.00000E+00
 3.600E+00 4.80257E+01
 3.800E+00 9.84420E+01
 4.000E+00 1.32431E+02
 4.200E+00 1.43215E+02
 4.400E+00 1.47923E+02
 4.600E+00 1.50803E+02
 4.800E+00 1.53157E+02
 5.000E+00 1.54767E+02
 5.500E+00 1.54914E+02
 6.000E+00 1.52074E+02
 6.500E+00 1.50452E+02
 7.000E+00 1.50430E+02
 7.500E+00 1.51656E+02
 8.000E+00 1.47708E+02
 8.500E+00 1.35510E+02
 9.000E+00 1.17059E+02
 9.500E+00 9.66773E+01
 1.000E+01 7.67481E+01
 1.100E+01 4.61917E+01
 1.200E+01 2.95548E+01
 1.300E+01 2.14628E+01
 1.400E+01 1.75449E+01
 1.500E+01 1.54536E+01
 1.600E+01 1.41501E+01
 1.700E+01 1.33574E+01
 1.800E+01 1.24634E+01
 1.900E+01 1.17508E+01
 2.000E+01 1.11631E+01
 2.100E+01 1.05823E+01
 2.200E+01 1.00974E+01
 2.300E+01 9.60774E+00
 2.400E+01 9.09020E+00
 2.500E+01 8.64966E+00
 2.600E+01 8.16060E+00
 2.700E+01 7.84825E+00
 2.800E+01 7.53449E+00
 2.900E+01 7.26699E+00
 3.000E+01 6.93559E+00
