# n + 208Pb: Gamma-ray intensity - 208Pb: Level  5 --> Level  2 - gamma energy    0.722060
# E-initial  =   3.919800 E-final=   3.197740
# E-threshold= 3.93881E+00
# # energies = 67
#    E         xs
 1.000E-11 0.00000E+00
 2.530E-08 0.00000E+00
 2.000E-07 0.00000E+00
 1.000E-06 0.00000E+00
 1.000E-03 0.00000E+00
 2.000E-03 0.00000E+00
 5.000E-03 0.00000E+00
 1.000E-02 0.00000E+00
 2.000E-02 0.00000E+00
 5.000E-02 0.00000E+00
 1.000E-01 0.00000E+00
 2.000E-01 0.00000E+00
 3.000E-01 0.00000E+00
 4.000E-01 0.00000E+00
 5.000E-01 0.00000E+00
 7.500E-01 0.00000E+00
 1.000E+00 0.00000E+00
 1.200E+00 0.00000E+00
 1.400E+00 0.00000E+00
 1.600E+00 0.00000E+00
 1.800E+00 0.00000E+00
 2.000E+00 0.00000E+00
 2.200E+00 0.00000E+00
 2.400E+00 0.00000E+00
 2.600E+00 0.00000E+00
 2.800E+00 0.00000E+00
 3.000E+00 0.00000E+00
 3.200E+00 0.00000E+00
 3.400E+00 0.00000E+00
 3.600E+00 0.00000E+00
 3.800E+00 0.00000E+00
 4.000E+00 4.34216E+00
 4.200E+00 1.06762E+01
 4.400E+00 1.80683E+01
 4.600E+00 2.24306E+01
 4.800E+00 2.48346E+01
 5.000E+00 2.61353E+01
 5.500E+00 2.79071E+01
 6.000E+00 2.96974E+01
 6.500E+00 3.20589E+01
 7.000E+00 3.50841E+01
 7.500E+00 3.87156E+01
 8.000E+00 4.20577E+01
 8.500E+00 4.38498E+01
 9.000E+00 4.27064E+01
 9.500E+00 3.86794E+01
 1.000E+01 3.30842E+01
 1.100E+01 2.16078E+01
 1.200E+01 1.35531E+01
 1.300E+01 9.44044E+00
 1.400E+01 7.35284E+00
 1.500E+01 6.34380E+00
 1.600E+01 5.78657E+00
 1.700E+01 5.49650E+00
 1.800E+01 5.13347E+00
 1.900E+01 4.90034E+00
 2.000E+01 4.64688E+00
 2.100E+01 4.42164E+00
 2.200E+01 4.21911E+00
 2.300E+01 4.07623E+00
 2.400E+01 3.82743E+00
 2.500E+01 3.67849E+00
 2.600E+01 3.45706E+00
 2.700E+01 3.32878E+00
 2.800E+01 3.23517E+00
 2.900E+01 3.03393E+00
 3.000E+01 2.93382E+00
