# n + 208Pb: Gamma-ray intensity - 209Pb: Level  7 --> Level  3 - gamma energy    0.856910
# E-initial  =   2.424000 E-final=   1.567090
# E-threshold= 0.00000E+00
# # energies = 67
#    E         xs
 1.000E-11 0.00000E+00
 2.530E-08 0.00000E+00
 2.000E-07 0.00000E+00
 1.000E-06 8.80137E-03
 1.000E-03 6.03066E-03
 2.000E-03 7.78343E-03
 5.000E-03 9.27357E-03
 1.000E-02 7.20845E-03
 2.000E-02 4.51689E-03
 5.000E-02 2.46183E-03
 1.000E-01 1.82938E-03
 2.000E-01 1.87844E-03
 3.000E-01 2.01393E-03
 4.000E-01 2.10343E-03
 5.000E-01 2.20202E-03
 7.500E-01 2.56363E-03
 1.000E+00 3.09333E-03
 1.200E+00 3.64791E-03
 1.400E+00 4.35364E-03
 1.600E+00 5.18018E-03
 1.800E+00 6.20937E-03
 2.000E+00 7.44636E-03
 2.200E+00 8.91576E-03
 2.400E+00 1.06600E-02
 2.600E+00 1.28773E-02
 2.800E+00 9.10337E-03
 3.000E+00 8.60611E-03
 3.200E+00 9.02951E-03
 3.400E+00 8.46748E-03
 3.600E+00 8.35352E-03
 3.800E+00 8.15868E-03
 4.000E+00 8.19688E-03
 4.200E+00 7.19341E-03
 4.400E+00 5.75354E-03
 4.600E+00 5.00219E-03
 4.800E+00 4.47147E-03
 5.000E+00 3.97760E-03
 5.500E+00 3.41094E-03
 6.000E+00 2.99195E-03
 6.500E+00 3.00960E-03
 7.000E+00 3.17404E-03
 7.500E+00 3.81715E-03
 8.000E+00 4.96650E-03
 8.500E+00 6.80205E-03
 9.000E+00 1.00697E-02
 9.500E+00 1.49910E-02
 1.000E+01 2.03419E-02
 1.100E+01 2.34407E-02
 1.200E+01 1.69797E-02
 1.300E+01 1.07954E-02
 1.400E+01 8.26554E-03
 1.500E+01 6.58514E-03
 1.600E+01 5.47902E-03
 1.700E+01 4.71608E-03
 1.800E+01 4.01230E-03
 1.900E+01 3.66772E-03
 2.000E+01 3.44654E-03
 2.100E+01 3.22317E-03
 2.200E+01 3.00451E-03
 2.300E+01 2.91067E-03
 2.400E+01 2.82177E-03
 2.500E+01 2.74383E-03
 2.600E+01 2.70714E-03
 2.700E+01 2.62349E-03
 2.800E+01 2.46890E-03
 2.900E+01 2.45473E-03
 3.000E+01 2.46316E-03
