# n + 208Pb: Gamma-ray intensity - 208Pb: Level 14 --> Level  3 - gamma energy    0.705330
# E-initial  =   4.180410 E-final=   3.475080
# E-threshold= 4.20068E+00
# # energies = 67
#    E         xs
 1.000E-11 0.00000E+00
 2.530E-08 0.00000E+00
 2.000E-07 0.00000E+00
 1.000E-06 0.00000E+00
 1.000E-03 0.00000E+00
 2.000E-03 0.00000E+00
 5.000E-03 0.00000E+00
 1.000E-02 0.00000E+00
 2.000E-02 0.00000E+00
 5.000E-02 0.00000E+00
 1.000E-01 0.00000E+00
 2.000E-01 0.00000E+00
 3.000E-01 0.00000E+00
 4.000E-01 0.00000E+00
 5.000E-01 0.00000E+00
 7.500E-01 0.00000E+00
 1.000E+00 0.00000E+00
 1.200E+00 0.00000E+00
 1.400E+00 0.00000E+00
 1.600E+00 0.00000E+00
 1.800E+00 0.00000E+00
 2.000E+00 0.00000E+00
 2.200E+00 0.00000E+00
 2.400E+00 0.00000E+00
 2.600E+00 0.00000E+00
 2.800E+00 0.00000E+00
 3.000E+00 0.00000E+00
 3.200E+00 0.00000E+00
 3.400E+00 0.00000E+00
 3.600E+00 0.00000E+00
 3.800E+00 0.00000E+00
 4.000E+00 0.00000E+00
 4.200E+00 0.00000E+00
 4.400E+00 3.60684E+00
 4.600E+00 5.09857E+00
 4.800E+00 5.91712E+00
 5.000E+00 6.20708E+00
 5.500E+00 6.04832E+00
 6.000E+00 5.71321E+00
 6.500E+00 5.44148E+00
 7.000E+00 5.27034E+00
 7.500E+00 5.22774E+00
 8.000E+00 5.12599E+00
 8.500E+00 4.74950E+00
 9.000E+00 4.09837E+00
 9.500E+00 3.34258E+00
 1.000E+01 2.61429E+00
 1.100E+01 1.51203E+00
 1.200E+01 9.32969E-01
 1.300E+01 6.59181E-01
 1.400E+01 5.32406E-01
 1.500E+01 4.67535E-01
 1.600E+01 4.28061E-01
 1.700E+01 4.02207E-01
 1.800E+01 3.76760E-01
 1.900E+01 3.55162E-01
 2.000E+01 3.38009E-01
 2.100E+01 3.21314E-01
 2.200E+01 3.05457E-01
 2.300E+01 2.90988E-01
 2.400E+01 2.76626E-01
 2.500E+01 2.61155E-01
 2.600E+01 2.46530E-01
 2.700E+01 2.37106E-01
 2.800E+01 2.28264E-01
 2.900E+01 2.20400E-01
 3.000E+01 2.12466E-01
