# n + 208Pb: Gamma-ray intensity - 206Pb: Level  4 --> Level  1 - gamma energy    0.663700
# E-initial  =   1.466800 E-final=   0.803100
# E-threshold= 8.97377E+00
# # energies = 66
#    E         xs
 1.000E-11 0.00000E+00
 2.530E-08 0.00000E+00
 1.000E-06 0.00000E+00
 1.000E-03 0.00000E+00
 2.000E-03 0.00000E+00
 5.000E-03 0.00000E+00
 1.000E-02 0.00000E+00
 2.000E-02 0.00000E+00
 5.000E-02 0.00000E+00
 1.000E-01 0.00000E+00
 2.000E-01 0.00000E+00
 3.000E-01 0.00000E+00
 4.000E-01 0.00000E+00
 5.000E-01 0.00000E+00
 7.500E-01 0.00000E+00
 1.000E+00 0.00000E+00
 1.200E+00 0.00000E+00
 1.400E+00 0.00000E+00
 1.600E+00 0.00000E+00
 1.800E+00 0.00000E+00
 2.000E+00 0.00000E+00
 2.200E+00 0.00000E+00
 2.400E+00 0.00000E+00
 2.600E+00 0.00000E+00
 2.800E+00 0.00000E+00
 3.000E+00 0.00000E+00
 3.200E+00 0.00000E+00
 3.400E+00 0.00000E+00
 3.600E+00 0.00000E+00
 3.800E+00 0.00000E+00
 4.000E+00 0.00000E+00
 4.200E+00 0.00000E+00
 4.400E+00 0.00000E+00
 4.600E+00 0.00000E+00
 4.800E+00 0.00000E+00
 5.000E+00 0.00000E+00
 5.500E+00 0.00000E+00
 6.000E+00 0.00000E+00
 6.500E+00 0.00000E+00
 7.000E+00 0.00000E+00
 7.500E+00 0.00000E+00
 8.000E+00 0.00000E+00
 8.500E+00 0.00000E+00
 9.000E+00 0.00000E+00
 9.500E+00 0.00000E+00
 1.000E+01 0.00000E+00
 1.100E+01 0.00000E+00
 1.200E+01 0.00000E+00
 1.300E+01 0.00000E+00
 1.400E+01 0.00000E+00
 1.500E+01 0.00000E+00
 1.600E+01 4.03185E-02
 1.700E+01 3.14169E+00
 1.800E+01 1.64807E+01
 1.900E+01 3.73818E+01
 2.000E+01 5.75333E+01
 2.100E+01 7.20199E+01
 2.200E+01 8.07926E+01
 2.300E+01 8.59922E+01
 2.400E+01 8.87640E+01
 2.500E+01 8.89316E+01
 2.600E+01 8.52011E+01
 2.700E+01 7.79725E+01
 2.800E+01 6.78407E+01
 2.900E+01 5.71576E+01
 3.000E+01 4.75431E+01
