# n + 208Pb: Gamma-ray intensity - 207Pb: Level  2 --> Level  1 - gamma energy    0.328097
# E-initial  =   0.897800 E-final=   0.569703
# E-threshold= 8.30570E+00
# # energies = 67
#    E         xs
 1.000E-11 0.00000E+00
 2.530E-08 0.00000E+00
 2.000E-07 0.00000E+00
 1.000E-06 0.00000E+00
 1.000E-03 0.00000E+00
 2.000E-03 0.00000E+00
 5.000E-03 0.00000E+00
 1.000E-02 0.00000E+00
 2.000E-02 0.00000E+00
 5.000E-02 0.00000E+00
 1.000E-01 0.00000E+00
 2.000E-01 0.00000E+00
 3.000E-01 0.00000E+00
 4.000E-01 0.00000E+00
 5.000E-01 0.00000E+00
 7.500E-01 0.00000E+00
 1.000E+00 0.00000E+00
 1.200E+00 0.00000E+00
 1.400E+00 0.00000E+00
 1.600E+00 0.00000E+00
 1.800E+00 0.00000E+00
 2.000E+00 0.00000E+00
 2.200E+00 0.00000E+00
 2.400E+00 0.00000E+00
 2.600E+00 0.00000E+00
 2.800E+00 0.00000E+00
 3.000E+00 0.00000E+00
 3.200E+00 0.00000E+00
 3.400E+00 0.00000E+00
 3.600E+00 0.00000E+00
 3.800E+00 0.00000E+00
 4.000E+00 0.00000E+00
 4.200E+00 0.00000E+00
 4.400E+00 0.00000E+00
 4.600E+00 0.00000E+00
 4.800E+00 0.00000E+00
 5.000E+00 0.00000E+00
 5.500E+00 0.00000E+00
 6.000E+00 0.00000E+00
 6.500E+00 0.00000E+00
 7.000E+00 0.00000E+00
 7.500E+00 0.00000E+00
 8.000E+00 0.00000E+00
 8.500E+00 1.66643E-02
 9.000E+00 2.98719E-01
 9.500E+00 8.18969E-01
 1.000E+01 1.34301E+00
 1.100E+01 2.11242E+00
 1.200E+01 2.22179E+00
 1.300E+01 1.95913E+00
 1.400E+01 1.69897E+00
 1.500E+01 1.52132E+00
 1.600E+01 1.31637E+00
 1.700E+01 1.06983E+00
 1.800E+01 8.38304E-01
 1.900E+01 6.61099E-01
 2.000E+01 5.30684E-01
 2.100E+01 4.34026E-01
 2.200E+01 3.71144E-01
 2.300E+01 3.25484E-01
 2.400E+01 2.93297E-01
 2.500E+01 2.72338E-01
 2.600E+01 2.56779E-01
 2.700E+01 2.39808E-01
 2.800E+01 2.31120E-01
 2.900E+01 2.20217E-01
 3.000E+01 2.12318E-01
