# n + 208Pb: Gamma-ray intensity - 208Pb: Level 18 --> Level  3 - gamma energy    0.786793
# E-initial  =   4.261871 E-final=   3.475078
# E-threshold= 4.28254E+00
# # energies =    67
#    E           xs
 1.00000E-11 0.00000E+00
 2.53000E-08 0.00000E+00
 2.00000E-07 0.00000E+00
 1.00000E-06 0.00000E+00
 1.00000E-03 0.00000E+00
 2.00000E-03 0.00000E+00
 5.00000E-03 0.00000E+00
 1.00000E-02 0.00000E+00
 2.00000E-02 0.00000E+00
 5.00000E-02 0.00000E+00
 1.00000E-01 0.00000E+00
 2.00000E-01 0.00000E+00
 3.00000E-01 0.00000E+00
 4.00000E-01 0.00000E+00
 5.00000E-01 0.00000E+00
 7.50000E-01 0.00000E+00
 1.00000E+00 0.00000E+00
 1.20000E+00 0.00000E+00
 1.40000E+00 0.00000E+00
 1.60000E+00 0.00000E+00
 1.80000E+00 0.00000E+00
 2.00000E+00 0.00000E+00
 2.20000E+00 0.00000E+00
 2.40000E+00 0.00000E+00
 2.60000E+00 0.00000E+00
 2.80000E+00 0.00000E+00
 3.00000E+00 0.00000E+00
 3.20000E+00 0.00000E+00
 3.40000E+00 0.00000E+00
 3.60000E+00 0.00000E+00
 3.80000E+00 0.00000E+00
 4.00000E+00 0.00000E+00
 4.20000E+00 0.00000E+00
 4.40000E+00 8.63717E+00
 4.60000E+00 1.49660E+01
 4.80000E+00 1.86509E+01
 5.00000E+00 1.99971E+01
 5.50000E+00 1.87615E+01
 6.00000E+00 1.66957E+01
 6.50000E+00 1.51387E+01
 7.00000E+00 1.39765E+01
 7.50000E+00 1.32403E+01
 8.00000E+00 1.20823E+01
 8.50000E+00 1.01798E+01
 9.00000E+00 8.06704E+00
 9.50000E+00 6.01912E+00
 1.00000E+01 4.34084E+00
 1.10000E+01 2.17477E+00
 1.20000E+01 1.22018E+00
 1.30000E+01 8.14444E-01
 1.40000E+01 6.42739E-01
 1.50000E+01 5.57495E-01
 1.60000E+01 5.02231E-01
 1.70000E+01 4.72954E-01
 1.80000E+01 4.35923E-01
 1.90000E+01 4.06277E-01
 2.00000E+01 3.82280E-01
 2.10000E+01 3.62223E-01
 2.20000E+01 3.39932E-01
 2.30000E+01 3.22815E-01
 2.40000E+01 3.04750E-01
 2.50000E+01 2.83115E-01
 2.60000E+01 2.66725E-01
 2.70000E+01 2.55980E-01
 2.80000E+01 2.42717E-01
 2.90000E+01 2.32797E-01
 3.00000E+01 2.23407E-01
