# n + 208Pb: Gamma-ray intensity - 208Pb: Level  5 --> Level  2 - gamma energy    0.722060
# E-initial  =   3.919800 E-final=   3.197740
# E-threshold= 3.93881E+00
# # energies = 66
#    E         xs
 1.000E-11 0.00000E+00
 2.530E-08 0.00000E+00
 1.000E-06 0.00000E+00
 1.000E-03 0.00000E+00
 2.000E-03 0.00000E+00
 5.000E-03 0.00000E+00
 1.000E-02 0.00000E+00
 2.000E-02 0.00000E+00
 5.000E-02 0.00000E+00
 1.000E-01 0.00000E+00
 2.000E-01 0.00000E+00
 3.000E-01 0.00000E+00
 4.000E-01 0.00000E+00
 5.000E-01 0.00000E+00
 7.500E-01 0.00000E+00
 1.000E+00 0.00000E+00
 1.200E+00 0.00000E+00
 1.400E+00 0.00000E+00
 1.600E+00 0.00000E+00
 1.800E+00 0.00000E+00
 2.000E+00 0.00000E+00
 2.200E+00 0.00000E+00
 2.400E+00 0.00000E+00
 2.600E+00 0.00000E+00
 2.800E+00 0.00000E+00
 3.000E+00 0.00000E+00
 3.200E+00 0.00000E+00
 3.400E+00 0.00000E+00
 3.600E+00 0.00000E+00
 3.800E+00 0.00000E+00
 4.000E+00 4.34226E+00
 4.200E+00 1.06745E+01
 4.400E+00 1.79790E+01
 4.600E+00 2.20505E+01
 4.800E+00 2.40923E+01
 5.000E+00 2.50881E+01
 5.500E+00 2.65798E+01
 6.000E+00 2.84958E+01
 6.500E+00 3.09925E+01
 7.000E+00 3.40177E+01
 7.500E+00 3.74447E+01
 8.000E+00 4.03446E+01
 8.500E+00 4.11573E+01
 9.000E+00 3.86247E+01
 9.500E+00 3.34480E+01
 1.000E+01 2.73467E+01
 1.100E+01 1.66693E+01
 1.200E+01 1.04134E+01
 1.300E+01 7.66092E+00
 1.400E+01 6.41323E+00
 1.500E+01 5.82553E+00
 1.600E+01 5.48294E+00
 1.700E+01 5.27620E+00
 1.800E+01 4.97617E+00
 1.900E+01 4.76373E+00
 2.000E+01 4.54664E+00
 2.100E+01 4.34905E+00
 2.200E+01 4.13370E+00
 2.300E+01 3.99765E+00
 2.400E+01 3.75914E+00
 2.500E+01 3.60052E+00
 2.600E+01 3.39623E+00
 2.700E+01 3.27410E+00
 2.800E+01 3.17325E+00
 2.900E+01 2.98739E+00
 3.000E+01 2.88746E+00
