# n + 208Pb: Gamma-ray intensity - 208Pb: Level  3 --> Level  2 - gamma energy    0.277370
# E-initial  =   3.475110 E-final=   3.197740
# E-threshold= 3.49196E+00
# # energies = 67
#    E         xs
 1.000E-11 0.00000E+00
 2.530E-08 0.00000E+00
 2.000E-07 0.00000E+00
 1.000E-06 0.00000E+00
 1.000E-03 0.00000E+00
 2.000E-03 0.00000E+00
 5.000E-03 0.00000E+00
 1.000E-02 0.00000E+00
 2.000E-02 0.00000E+00
 5.000E-02 0.00000E+00
 1.000E-01 0.00000E+00
 2.000E-01 0.00000E+00
 3.000E-01 0.00000E+00
 4.000E-01 0.00000E+00
 5.000E-01 0.00000E+00
 7.500E-01 0.00000E+00
 1.000E+00 0.00000E+00
 1.200E+00 0.00000E+00
 1.400E+00 0.00000E+00
 1.600E+00 0.00000E+00
 1.800E+00 0.00000E+00
 2.000E+00 0.00000E+00
 2.200E+00 0.00000E+00
 2.400E+00 0.00000E+00
 2.600E+00 0.00000E+00
 2.800E+00 0.00000E+00
 3.000E+00 0.00000E+00
 3.200E+00 0.00000E+00
 3.400E+00 0.00000E+00
 3.600E+00 2.42079E+01
 3.800E+00 4.96207E+01
 4.000E+00 6.67533E+01
 4.200E+00 7.21889E+01
 4.400E+00 7.45621E+01
 4.600E+00 7.60137E+01
 4.800E+00 7.72015E+01
 5.000E+00 7.80154E+01
 5.500E+00 7.80925E+01
 6.000E+00 7.66602E+01
 6.500E+00 7.58440E+01
 7.000E+00 7.58357E+01
 7.500E+00 7.64573E+01
 8.000E+00 7.44596E+01
 8.500E+00 6.82866E+01
 9.000E+00 5.89508E+01
 9.500E+00 4.86385E+01
 1.000E+01 3.85541E+01
 1.100E+01 2.31003E+01
 1.200E+01 1.46933E+01
 1.300E+01 1.06061E+01
 1.400E+01 8.62926E+00
 1.500E+01 7.57968E+00
 1.600E+01 6.93127E+00
 1.700E+01 6.53748E+00
 1.800E+01 6.09163E+00
 1.900E+01 5.74014E+00
 2.000E+01 5.45180E+00
 2.100E+01 5.16825E+00
 2.200E+01 4.92765E+00
 2.300E+01 4.68540E+00
 2.400E+01 4.42946E+00
 2.500E+01 4.21403E+00
 2.600E+01 3.97477E+00
 2.700E+01 3.81796E+00
 2.800E+01 3.65914E+00
 2.900E+01 3.52404E+00
 3.000E+01 3.35953E+00
