# n + 208Pb: Gamma-ray intensity - 208Pb: Level 16 --> Level  0 - gamma energy    4.229590
# E-initial  =   4.229590 E-final=   0.000000
# E-threshold= 4.25010E+00
# # energies =    67
#    E           xs
 1.00000E-11 0.00000E+00
 2.53000E-08 0.00000E+00
 2.00000E-07 0.00000E+00
 1.00000E-06 0.00000E+00
 1.00000E-03 0.00000E+00
 2.00000E-03 0.00000E+00
 5.00000E-03 0.00000E+00
 1.00000E-02 0.00000E+00
 2.00000E-02 0.00000E+00
 5.00000E-02 0.00000E+00
 1.00000E-01 0.00000E+00
 2.00000E-01 0.00000E+00
 3.00000E-01 0.00000E+00
 4.00000E-01 0.00000E+00
 5.00000E-01 0.00000E+00
 7.50000E-01 0.00000E+00
 1.00000E+00 0.00000E+00
 1.20000E+00 0.00000E+00
 1.40000E+00 0.00000E+00
 1.60000E+00 0.00000E+00
 1.80000E+00 0.00000E+00
 2.00000E+00 0.00000E+00
 2.20000E+00 0.00000E+00
 2.40000E+00 0.00000E+00
 2.60000E+00 0.00000E+00
 2.80000E+00 0.00000E+00
 3.00000E+00 0.00000E+00
 3.20000E+00 0.00000E+00
 3.40000E+00 0.00000E+00
 3.60000E+00 0.00000E+00
 3.80000E+00 0.00000E+00
 4.00000E+00 0.00000E+00
 4.20000E+00 0.00000E+00
 4.40000E+00 7.90951E+00
 4.60000E+00 1.23849E+01
 4.80000E+00 1.45749E+01
 5.00000E+00 1.48407E+01
 5.50000E+00 1.24124E+01
 6.00000E+00 1.02252E+01
 6.50000E+00 8.86121E+00
 7.00000E+00 7.97045E+00
 7.50000E+00 7.38570E+00
 8.00000E+00 6.31707E+00
 8.50000E+00 4.89915E+00
 9.00000E+00 3.65966E+00
 9.50000E+00 2.58652E+00
 1.00000E+01 1.80161E+00
 1.10000E+01 8.95644E-01
 1.20000E+01 5.12717E-01
 1.30000E+01 3.45498E-01
 1.40000E+01 2.80124E-01
 1.50000E+01 2.44750E-01
 1.60000E+01 2.19132E-01
 1.70000E+01 2.13005E-01
 1.80000E+01 1.93386E-01
 1.90000E+01 1.78464E-01
 2.00000E+01 1.70459E-01
 2.10000E+01 1.65578E-01
 2.20000E+01 1.51130E-01
 2.30000E+01 1.46656E-01
 2.40000E+01 1.41180E-01
 2.50000E+01 1.27419E-01
 2.60000E+01 1.22195E-01
 2.70000E+01 1.19759E-01
 2.80000E+01 1.14908E-01
 2.90000E+01 1.07151E-01
 3.00000E+01 1.03555E-01
