# n + 208Pb: Gamma-ray intensity - 208Pb: Level  4 --> Level  3 - gamma energy    0.233330
# E-initial  =   3.708440 E-final=   3.475110
# E-threshold= 3.72643E+00
# # energies = 67
#    E         xs
 1.000E-11 0.00000E+00
 2.530E-08 0.00000E+00
 2.000E-07 0.00000E+00
 1.000E-06 0.00000E+00
 1.000E-03 0.00000E+00
 2.000E-03 0.00000E+00
 5.000E-03 0.00000E+00
 1.000E-02 0.00000E+00
 2.000E-02 0.00000E+00
 5.000E-02 0.00000E+00
 1.000E-01 0.00000E+00
 2.000E-01 0.00000E+00
 3.000E-01 0.00000E+00
 4.000E-01 0.00000E+00
 5.000E-01 0.00000E+00
 7.500E-01 0.00000E+00
 1.000E+00 0.00000E+00
 1.200E+00 0.00000E+00
 1.400E+00 0.00000E+00
 1.600E+00 0.00000E+00
 1.800E+00 0.00000E+00
 2.000E+00 0.00000E+00
 2.200E+00 0.00000E+00
 2.400E+00 0.00000E+00
 2.600E+00 0.00000E+00
 2.800E+00 0.00000E+00
 3.000E+00 0.00000E+00
 3.200E+00 0.00000E+00
 3.400E+00 0.00000E+00
 3.600E+00 0.00000E+00
 3.800E+00 1.74816E+00
 4.000E+00 4.56811E+00
 4.200E+00 6.95744E+00
 4.400E+00 8.31931E+00
 4.600E+00 9.04248E+00
 4.800E+00 9.40754E+00
 5.000E+00 9.62494E+00
 5.500E+00 1.00343E+01
 6.000E+00 1.04846E+01
 6.500E+00 1.11583E+01
 7.000E+00 1.21124E+01
 7.500E+00 1.32989E+01
 8.000E+00 1.43657E+01
 8.500E+00 1.48690E+01
 9.000E+00 1.44571E+01
 9.500E+00 1.32019E+01
 1.000E+01 1.14570E+01
 1.100E+01 7.79270E+00
 1.200E+01 5.12076E+00
 1.300E+01 3.69044E+00
 1.400E+01 2.93524E+00
 1.500E+01 2.56380E+00
 1.600E+01 2.35339E+00
 1.700E+01 2.24646E+00
 1.800E+01 2.12204E+00
 1.900E+01 2.03558E+00
 2.000E+01 1.94562E+00
 2.100E+01 1.86600E+00
 2.200E+01 1.77448E+00
 2.300E+01 1.71639E+00
 2.400E+01 1.62612E+00
 2.500E+01 1.56335E+00
 2.600E+01 1.48312E+00
 2.700E+01 1.42827E+00
 2.800E+01 1.38941E+00
 2.900E+01 1.31647E+00
 3.000E+01 1.27288E+00
