# n + 208Pb: Gamma-ray intensity - 208Pb: Level 19 --> Level  1 - gamma energy    1.614950
# E-initial  =   4.229500 E-final=   2.614550
# E-threshold= 4.25001E+00
# # energies = 67
#    E         xs
 1.000E-11 0.00000E+00
 2.530E-08 0.00000E+00
 2.000E-07 0.00000E+00
 1.000E-06 0.00000E+00
 1.000E-03 0.00000E+00
 2.000E-03 0.00000E+00
 5.000E-03 0.00000E+00
 1.000E-02 0.00000E+00
 2.000E-02 0.00000E+00
 5.000E-02 0.00000E+00
 1.000E-01 0.00000E+00
 2.000E-01 0.00000E+00
 3.000E-01 0.00000E+00
 4.000E-01 0.00000E+00
 5.000E-01 0.00000E+00
 7.500E-01 0.00000E+00
 1.000E+00 0.00000E+00
 1.200E+00 0.00000E+00
 1.400E+00 0.00000E+00
 1.600E+00 0.00000E+00
 1.800E+00 0.00000E+00
 2.000E+00 0.00000E+00
 2.200E+00 0.00000E+00
 2.400E+00 0.00000E+00
 2.600E+00 0.00000E+00
 2.800E+00 0.00000E+00
 3.000E+00 0.00000E+00
 3.200E+00 0.00000E+00
 3.400E+00 0.00000E+00
 3.600E+00 0.00000E+00
 3.800E+00 0.00000E+00
 4.000E+00 0.00000E+00
 4.200E+00 0.00000E+00
 4.400E+00 3.28632E+01
 4.600E+00 4.88251E+01
 4.800E+00 5.43009E+01
 5.000E+00 5.38249E+01
 5.500E+00 4.51378E+01
 6.000E+00 3.77786E+01
 6.500E+00 3.30949E+01
 7.000E+00 3.00438E+01
 7.500E+00 2.82400E+01
 8.000E+00 2.48913E+01
 8.500E+00 2.05427E+01
 9.000E+00 1.62663E+01
 9.500E+00 1.26001E+01
 1.000E+01 9.27568E+00
 1.100E+01 5.19639E+00
 1.200E+01 3.36833E+00
 1.300E+01 2.44049E+00
 1.400E+01 2.01451E+00
 1.500E+01 1.75970E+00
 1.600E+01 1.61855E+00
 1.700E+01 1.56221E+00
 1.800E+01 1.51704E+00
 1.900E+01 1.43096E+00
 2.000E+01 1.42589E+00
 2.100E+01 1.35199E+00
 2.200E+01 1.38358E+00
 2.300E+01 1.30227E+00
 2.400E+01 1.29320E+00
 2.500E+01 1.27289E+00
 2.600E+01 1.18546E+00
 2.700E+01 1.17139E+00
 2.800E+01 1.14346E+00
 2.900E+01 1.13441E+00
 3.000E+01 1.06981E+00
