# n + 208Pb: Gamma-ray intensity - 208Pb: Level  6 --> Level  2 - gamma energy    0.748870
# E-initial  =   3.946580 E-final=   3.197710
# E-threshold= 3.96572E+00
# # energies = 67
#    E         xs
 1.000E-11 0.00000E+00
 2.530E-08 0.00000E+00
 2.000E-07 0.00000E+00
 1.000E-06 0.00000E+00
 1.000E-03 0.00000E+00
 2.000E-03 0.00000E+00
 5.000E-03 0.00000E+00
 1.000E-02 0.00000E+00
 2.000E-02 0.00000E+00
 5.000E-02 0.00000E+00
 1.000E-01 0.00000E+00
 2.000E-01 0.00000E+00
 3.000E-01 0.00000E+00
 4.000E-01 0.00000E+00
 5.000E-01 0.00000E+00
 7.500E-01 0.00000E+00
 1.000E+00 0.00000E+00
 1.200E+00 0.00000E+00
 1.400E+00 0.00000E+00
 1.600E+00 0.00000E+00
 1.800E+00 0.00000E+00
 2.000E+00 0.00000E+00
 2.200E+00 0.00000E+00
 2.400E+00 0.00000E+00
 2.600E+00 0.00000E+00
 2.800E+00 0.00000E+00
 3.000E+00 0.00000E+00
 3.200E+00 0.00000E+00
 3.400E+00 0.00000E+00
 3.600E+00 0.00000E+00
 3.800E+00 0.00000E+00
 4.000E+00 1.72696E+01
 4.200E+00 4.93792E+01
 4.400E+00 6.40259E+01
 4.600E+00 6.82472E+01
 4.800E+00 6.80791E+01
 5.000E+00 6.58754E+01
 5.500E+00 6.01084E+01
 6.000E+00 5.52603E+01
 6.500E+00 5.13163E+01
 7.000E+00 4.88084E+01
 7.500E+00 4.74560E+01
 8.000E+00 4.43876E+01
 8.500E+00 3.86339E+01
 9.000E+00 3.18268E+01
 9.500E+00 2.48265E+01
 1.000E+01 1.87878E+01
 1.100E+01 1.03519E+01
 1.200E+01 6.22491E+00
 1.300E+01 4.30249E+00
 1.400E+01 3.43689E+00
 1.500E+01 2.98636E+00
 1.600E+01 2.69691E+00
 1.700E+01 2.51522E+00
 1.800E+01 2.32166E+00
 1.900E+01 2.16385E+00
 2.000E+01 2.03548E+00
 2.100E+01 1.91973E+00
 2.200E+01 1.80218E+00
 2.300E+01 1.70693E+00
 2.400E+01 1.61192E+00
 2.500E+01 1.49030E+00
 2.600E+01 1.38938E+00
 2.700E+01 1.33012E+00
 2.800E+01 1.27857E+00
 2.900E+01 1.23213E+00
 3.000E+01 1.18598E+00
