# n + 208Pb: Gamma-ray intensity - 208Pb: Level 19 --> Level  3 - gamma energy    0.821480
# E-initial  =   4.296560 E-final=   3.475080
# E-threshold= 4.31740E+00
# # energies = 67
#    E         xs
 1.000E-11 0.00000E+00
 2.530E-08 0.00000E+00
 2.000E-07 0.00000E+00
 1.000E-06 0.00000E+00
 1.000E-03 0.00000E+00
 2.000E-03 0.00000E+00
 5.000E-03 0.00000E+00
 1.000E-02 0.00000E+00
 2.000E-02 0.00000E+00
 5.000E-02 0.00000E+00
 1.000E-01 0.00000E+00
 2.000E-01 0.00000E+00
 3.000E-01 0.00000E+00
 4.000E-01 0.00000E+00
 5.000E-01 0.00000E+00
 7.500E-01 0.00000E+00
 1.000E+00 0.00000E+00
 1.200E+00 0.00000E+00
 1.400E+00 0.00000E+00
 1.600E+00 0.00000E+00
 1.800E+00 0.00000E+00
 2.000E+00 0.00000E+00
 2.200E+00 0.00000E+00
 2.400E+00 0.00000E+00
 2.600E+00 0.00000E+00
 2.800E+00 0.00000E+00
 3.000E+00 0.00000E+00
 3.200E+00 0.00000E+00
 3.400E+00 0.00000E+00
 3.600E+00 0.00000E+00
 3.800E+00 0.00000E+00
 4.000E+00 0.00000E+00
 4.200E+00 0.00000E+00
 4.400E+00 6.34513E+00
 4.600E+00 1.20900E+01
 4.800E+00 1.60242E+01
 5.000E+00 1.81251E+01
 5.500E+00 1.86387E+01
 6.000E+00 1.75672E+01
 6.500E+00 1.66821E+01
 7.000E+00 1.60468E+01
 7.500E+00 1.57633E+01
 8.000E+00 1.53573E+01
 8.500E+00 1.42030E+01
 9.000E+00 1.22699E+01
 9.500E+00 1.00504E+01
 1.000E+01 7.91708E+00
 1.100E+01 4.69534E+00
 1.200E+01 3.00347E+00
 1.300E+01 2.20060E+00
 1.400E+01 1.82370E+00
 1.500E+01 1.62463E+00
 1.600E+01 1.50061E+00
 1.700E+01 1.41661E+00
 1.800E+01 1.33668E+00
 1.900E+01 1.26851E+00
 2.000E+01 1.21441E+00
 2.100E+01 1.16020E+00
 2.200E+01 1.10842E+00
 2.300E+01 1.06004E+00
 2.400E+01 1.01185E+00
 2.500E+01 9.63816E-01
 2.600E+01 9.17698E-01
 2.700E+01 8.86250E-01
 2.800E+01 8.56036E-01
 2.900E+01 8.28802E-01
 3.000E+01 8.01182E-01
