# n + 208Pb: Gamma-ray intensity - 209Pb: Level  5 --> Level  4 - gamma energy    0.117210
# E-initial  =   2.149430 E-final=   2.032220
# E-threshold= 0.00000E+00
# # energies =    67
#    E           xs
 1.00000E-11 0.00000E+00
 2.53000E-08 0.00000E+00
 2.00000E-07 0.00000E+00
 1.00000E-06 7.84927E+01
 1.00000E-03 1.59112E-01
 2.00000E-03 9.39326E-02
 5.00000E-03 5.01422E-02
 1.00000E-02 2.93091E-02
 2.00000E-02 1.61181E-02
 5.00000E-02 7.24608E-03
 1.00000E-01 4.14397E-03
 2.00000E-01 2.60239E-03
 3.00000E-01 2.14471E-03
 4.00000E-01 1.97211E-03
 5.00000E-01 1.92209E-03
 7.50000E-01 2.04368E-03
 1.00000E+00 2.36976E-03
 1.20000E+00 2.74196E-03
 1.40000E+00 3.20190E-03
 1.60000E+00 3.78193E-03
 1.80000E+00 4.47882E-03
 2.00000E+00 5.30635E-03
 2.20000E+00 6.34772E-03
 2.40000E+00 7.58292E-03
 2.60000E+00 8.93837E-03
 2.80000E+00 9.11857E-03
 3.00000E+00 9.47503E-03
 3.20000E+00 1.03147E-02
 3.40000E+00 1.09808E-02
 3.60000E+00 1.19938E-02
 3.80000E+00 1.25509E-02
 4.00000E+00 1.34134E-02
 4.20000E+00 1.27468E-02
 4.40000E+00 1.03045E-02
 4.60000E+00 8.97242E-03
 4.80000E+00 9.16442E-03
 5.00000E+00 8.33783E-03
 5.50000E+00 6.72766E-03
 6.00000E+00 5.98253E-03
 6.50000E+00 6.22778E-03
 7.00000E+00 7.39581E-03
 7.50000E+00 9.60700E-03
 8.00000E+00 1.38761E-02
 8.50000E+00 2.13282E-02
 9.00000E+00 3.35300E-02
 9.50000E+00 5.15419E-02
 1.00000E+01 6.93503E-02
 1.10000E+01 6.84943E-02
 1.20000E+01 4.61301E-02
 1.30000E+01 3.12565E-02
 1.40000E+01 2.31491E-02
 1.50000E+01 1.86327E-02
 1.60000E+01 1.58305E-02
 1.70000E+01 1.49019E-02
 1.80000E+01 1.37085E-02
 1.90000E+01 1.31843E-02
 2.00000E+01 1.23083E-02
 2.10000E+01 1.11483E-02
 2.20000E+01 9.98630E-03
 2.30000E+01 9.48911E-03
 2.40000E+01 8.52460E-03
 2.50000E+01 8.10255E-03
 2.60000E+01 7.53787E-03
 2.70000E+01 7.24862E-03
 2.80000E+01 6.92834E-03
 2.90000E+01 6.60900E-03
 3.00000E+01 6.42306E-03
