# n + 208Pb: Gamma-ray intensity - 208Pb: Level 10 --> Level  5 - gamma energy    0.125200
# E-initial  =   4.045000 E-final=   3.919800
# E-threshold= 4.06462E+00
# # energies = 67
#    E         xs
 1.000E-11 0.00000E+00
 2.530E-08 0.00000E+00
 2.000E-07 0.00000E+00
 1.000E-06 0.00000E+00
 1.000E-03 0.00000E+00
 2.000E-03 0.00000E+00
 5.000E-03 0.00000E+00
 1.000E-02 0.00000E+00
 2.000E-02 0.00000E+00
 5.000E-02 0.00000E+00
 1.000E-01 0.00000E+00
 2.000E-01 0.00000E+00
 3.000E-01 0.00000E+00
 4.000E-01 0.00000E+00
 5.000E-01 0.00000E+00
 7.500E-01 0.00000E+00
 1.000E+00 0.00000E+00
 1.200E+00 0.00000E+00
 1.400E+00 0.00000E+00
 1.600E+00 0.00000E+00
 1.800E+00 0.00000E+00
 2.000E+00 0.00000E+00
 2.200E+00 0.00000E+00
 2.400E+00 0.00000E+00
 2.600E+00 0.00000E+00
 2.800E+00 0.00000E+00
 3.000E+00 0.00000E+00
 3.200E+00 0.00000E+00
 3.400E+00 0.00000E+00
 3.600E+00 0.00000E+00
 3.800E+00 0.00000E+00
 4.000E+00 0.00000E+00
 4.200E+00 1.03891E+01
 4.400E+00 1.59354E+01
 4.600E+00 1.95552E+01
 4.800E+00 2.15970E+01
 5.000E+00 2.28195E+01
 5.500E+00 2.49122E+01
 6.000E+00 2.71316E+01
 6.500E+00 2.98163E+01
 7.000E+00 3.30964E+01
 7.500E+00 3.69433E+01
 8.000E+00 4.06242E+01
 8.500E+00 4.28724E+01
 9.000E+00 4.20304E+01
 9.500E+00 3.81428E+01
 1.000E+01 3.26228E+01
 1.100E+01 2.12055E+01
 1.200E+01 1.32090E+01
 1.300E+01 9.15142E+00
 1.400E+01 7.10355E+00
 1.500E+01 6.12638E+00
 1.600E+01 5.60033E+00
 1.700E+01 5.33373E+00
 1.800E+01 4.99108E+00
 1.900E+01 4.78163E+00
 2.000E+01 4.54675E+00
 2.100E+01 4.33778E+00
 2.200E+01 4.15222E+00
 2.300E+01 4.02868E+00
 2.400E+01 3.79120E+00
 2.500E+01 3.66473E+00
 2.600E+01 3.44871E+00
 2.700E+01 3.33353E+00
 2.800E+01 3.24991E+00
 2.900E+01 3.05069E+00
 3.000E+01 2.96191E+00
