# n + 208Pb: Gamma-ray intensity - 208Pb: Level  8 --> Level  2 - gamma energy    0.797960
# E-initial  =   3.995700 E-final=   3.197740
# E-threshold= 4.01508E+00
# # energies = 66
#    E         xs
 1.000E-11 0.00000E+00
 2.530E-08 0.00000E+00
 1.000E-06 0.00000E+00
 1.000E-03 0.00000E+00
 2.000E-03 0.00000E+00
 5.000E-03 0.00000E+00
 1.000E-02 0.00000E+00
 2.000E-02 0.00000E+00
 5.000E-02 0.00000E+00
 1.000E-01 0.00000E+00
 2.000E-01 0.00000E+00
 3.000E-01 0.00000E+00
 4.000E-01 0.00000E+00
 5.000E-01 0.00000E+00
 7.500E-01 0.00000E+00
 1.000E+00 0.00000E+00
 1.200E+00 0.00000E+00
 1.400E+00 0.00000E+00
 1.600E+00 0.00000E+00
 1.800E+00 0.00000E+00
 2.000E+00 0.00000E+00
 2.200E+00 0.00000E+00
 2.400E+00 0.00000E+00
 2.600E+00 0.00000E+00
 2.800E+00 0.00000E+00
 3.000E+00 0.00000E+00
 3.200E+00 0.00000E+00
 3.400E+00 0.00000E+00
 3.600E+00 0.00000E+00
 3.800E+00 0.00000E+00
 4.000E+00 0.00000E+00
 4.200E+00 1.06795E+01
 4.400E+00 1.45102E+01
 4.600E+00 1.60347E+01
 4.800E+00 1.61825E+01
 5.000E+00 1.57811E+01
 5.500E+00 1.45227E+01
 6.000E+00 1.37102E+01
 6.500E+00 1.33521E+01
 7.000E+00 1.34102E+01
 7.500E+00 1.37765E+01
 8.000E+00 1.38551E+01
 8.500E+00 1.29433E+01
 9.000E+00 1.10824E+01
 9.500E+00 8.93346E+00
 1.000E+01 6.91462E+00
 1.100E+01 4.01120E+00
 1.200E+01 2.59521E+00
 1.300E+01 1.98320E+00
 1.400E+01 1.70544E+00
 1.500E+01 1.56127E+00
 1.600E+01 1.46404E+00
 1.700E+01 1.39955E+00
 1.800E+01 1.32558E+00
 1.900E+01 1.26293E+00
 2.000E+01 1.20826E+00
 2.100E+01 1.15923E+00
 2.200E+01 1.10677E+00
 2.300E+01 1.06294E+00
 2.400E+01 1.01052E+00
 2.500E+01 9.68123E-01
 2.600E+01 9.26417E-01
 2.700E+01 8.90266E-01
 2.800E+01 8.58691E-01
 2.900E+01 8.25805E-01
 3.000E+01 7.92878E-01
