# n + 208Pb: Gamma-ray intensity - 208Pb: Level  2 --> Level  1 - gamma energy    0.583190
# E-initial  =   3.197740 E-final=   2.614550
# E-threshold= 3.21325E+00
# # energies = 67
#    E         xs
 1.000E-11 0.00000E+00
 2.530E-08 0.00000E+00
 2.000E-07 0.00000E+00
 1.000E-06 0.00000E+00
 1.000E-03 0.00000E+00
 2.000E-03 0.00000E+00
 5.000E-03 0.00000E+00
 1.000E-02 0.00000E+00
 2.000E-02 0.00000E+00
 5.000E-02 0.00000E+00
 1.000E-01 0.00000E+00
 2.000E-01 0.00000E+00
 3.000E-01 0.00000E+00
 4.000E-01 0.00000E+00
 5.000E-01 0.00000E+00
 7.500E-01 0.00000E+00
 1.000E+00 0.00000E+00
 1.200E+00 0.00000E+00
 1.400E+00 0.00000E+00
 1.600E+00 0.00000E+00
 1.800E+00 0.00000E+00
 2.000E+00 0.00000E+00
 2.200E+00 0.00000E+00
 2.400E+00 0.00000E+00
 2.600E+00 0.00000E+00
 2.800E+00 0.00000E+00
 3.000E+00 0.00000E+00
 3.200E+00 0.00000E+00
 3.400E+00 1.37755E+02
 3.600E+00 2.62061E+02
 3.800E+00 3.98771E+02
 4.000E+00 5.60777E+02
 4.200E+00 7.33458E+02
 4.400E+00 8.77385E+02
 4.600E+00 9.56996E+02
 4.800E+00 1.00274E+03
 5.000E+00 1.02873E+03
 5.500E+00 1.05592E+03
 6.000E+00 1.07196E+03
 6.500E+00 1.10281E+03
 7.000E+00 1.15270E+03
 7.500E+00 1.21873E+03
 8.000E+00 1.26572E+03
 8.500E+00 1.25579E+03
 9.000E+00 1.17354E+03
 9.500E+00 1.03710E+03
 1.000E+01 8.76082E+02
 1.100E+01 5.76621E+02
 1.200E+01 3.77846E+02
 1.300E+01 2.74580E+02
 1.400E+01 2.21066E+02
 1.500E+01 1.94059E+02
 1.600E+01 1.77999E+02
 1.700E+01 1.69216E+02
 1.800E+01 1.59402E+02
 1.900E+01 1.52155E+02
 2.000E+01 1.45050E+02
 2.100E+01 1.38782E+02
 2.200E+01 1.32071E+02
 2.300E+01 1.27232E+02
 2.400E+01 1.20499E+02
 2.500E+01 1.15419E+02
 2.600E+01 1.09480E+02
 2.700E+01 1.05281E+02
 2.800E+01 1.02133E+02
 2.900E+01 9.71510E+01
 3.000E+01 9.36187E+01
