# n + 208Pb: Gamma-ray intensity - 208Pb: Level 26 --> Level  9 - gamma energy    0.573305
# E-initial  =   4.610748 E-final=   4.037443
# E-threshold= 4.63311E+00
# # energies =    67
#    E           xs
 1.00000E-11 0.00000E+00
 2.53000E-08 0.00000E+00
 2.00000E-07 0.00000E+00
 1.00000E-06 0.00000E+00
 1.00000E-03 0.00000E+00
 2.00000E-03 0.00000E+00
 5.00000E-03 0.00000E+00
 1.00000E-02 0.00000E+00
 2.00000E-02 0.00000E+00
 5.00000E-02 0.00000E+00
 1.00000E-01 0.00000E+00
 2.00000E-01 0.00000E+00
 3.00000E-01 0.00000E+00
 4.00000E-01 0.00000E+00
 5.00000E-01 0.00000E+00
 7.50000E-01 0.00000E+00
 1.00000E+00 0.00000E+00
 1.20000E+00 0.00000E+00
 1.40000E+00 0.00000E+00
 1.60000E+00 0.00000E+00
 1.80000E+00 0.00000E+00
 2.00000E+00 0.00000E+00
 2.20000E+00 0.00000E+00
 2.40000E+00 0.00000E+00
 2.60000E+00 0.00000E+00
 2.80000E+00 0.00000E+00
 3.00000E+00 0.00000E+00
 3.20000E+00 0.00000E+00
 3.40000E+00 0.00000E+00
 3.60000E+00 0.00000E+00
 3.80000E+00 0.00000E+00
 4.00000E+00 0.00000E+00
 4.20000E+00 0.00000E+00
 4.40000E+00 0.00000E+00
 4.60000E+00 0.00000E+00
 4.80000E+00 1.26476E-02
 5.00000E+00 3.50341E-02
 5.50000E+00 1.63143E-01
 6.00000E+00 4.05840E-01
 6.50000E+00 7.12629E-01
 7.00000E+00 1.06866E+00
 7.50000E+00 1.49953E+00
 8.00000E+00 1.97933E+00
 8.50000E+00 2.45100E+00
 9.00000E+00 2.81972E+00
 9.50000E+00 2.96674E+00
 1.00000E+01 2.85728E+00
 1.10000E+01 2.24784E+00
 1.20000E+01 1.54024E+00
 1.30000E+01 1.08143E+00
 1.40000E+01 8.67616E-01
 1.50000E+01 7.66476E-01
 1.60000E+01 7.27889E-01
 1.70000E+01 7.18806E-01
 1.80000E+01 6.97205E-01
 1.90000E+01 6.77397E-01
 2.00000E+01 6.73169E-01
 2.10000E+01 6.59910E-01
 2.20000E+01 6.44917E-01
 2.30000E+01 6.29992E-01
 2.40000E+01 6.12337E-01
 2.50000E+01 5.78092E-01
 2.60000E+01 5.50309E-01
 2.70000E+01 5.26096E-01
 2.80000E+01 4.95419E-01
 2.90000E+01 4.73618E-01
 3.00000E+01 4.53242E-01
