# n + 208Pb: Gamma-ray intensity - 208Pb: Level  3 --> Level  2 - gamma energy    0.277370
# E-initial  =   3.475110 E-final=   3.197740
# E-threshold= 3.49196E+00
# # energies = 66
#    E         xs
 1.000E-11 0.00000E+00
 2.530E-08 0.00000E+00
 1.000E-06 0.00000E+00
 1.000E-03 0.00000E+00
 2.000E-03 0.00000E+00
 5.000E-03 0.00000E+00
 1.000E-02 0.00000E+00
 2.000E-02 0.00000E+00
 5.000E-02 0.00000E+00
 1.000E-01 0.00000E+00
 2.000E-01 0.00000E+00
 3.000E-01 0.00000E+00
 4.000E-01 0.00000E+00
 5.000E-01 0.00000E+00
 7.500E-01 0.00000E+00
 1.000E+00 0.00000E+00
 1.200E+00 0.00000E+00
 1.400E+00 0.00000E+00
 1.600E+00 0.00000E+00
 1.800E+00 0.00000E+00
 2.000E+00 0.00000E+00
 2.200E+00 0.00000E+00
 2.400E+00 0.00000E+00
 2.600E+00 0.00000E+00
 2.800E+00 0.00000E+00
 3.000E+00 0.00000E+00
 3.200E+00 0.00000E+00
 3.400E+00 0.00000E+00
 3.600E+00 4.64370E+01
 3.800E+00 9.55647E+01
 4.000E+00 1.29075E+02
 4.200E+00 1.40082E+02
 4.400E+00 1.44416E+02
 4.600E+00 1.45723E+02
 4.800E+00 1.46151E+02
 5.000E+00 1.46000E+02
 5.500E+00 1.43720E+02
 6.000E+00 1.40636E+02
 6.500E+00 1.39380E+02
 7.000E+00 1.39894E+02
 7.500E+00 1.41552E+02
 8.000E+00 1.37767E+02
 8.500E+00 1.24599E+02
 9.000E+00 1.04998E+02
 9.500E+00 8.40882E+01
 1.000E+01 6.48131E+01
 1.100E+01 3.75351E+01
 1.200E+01 2.41966E+01
 1.300E+01 1.83790E+01
 1.400E+01 1.57190E+01
 1.500E+01 1.42897E+01
 1.600E+01 1.33193E+01
 1.700E+01 1.26898E+01
 1.800E+01 1.19236E+01
 1.900E+01 1.12838E+01
 2.000E+01 1.07445E+01
 2.100E+01 1.02268E+01
 2.200E+01 9.71807E+00
 2.300E+01 9.27495E+00
 2.400E+01 8.75736E+00
 2.500E+01 8.33222E+00
 2.600E+01 7.88292E+00
 2.700E+01 7.55275E+00
 2.800E+01 7.27706E+00
 2.900E+01 6.96266E+00
 3.000E+01 6.64415E+00
