# n + 208Pb: Gamma-ray intensity - 208Pb: Level 12 --> Level  0 - gamma energy    4.085400
# E-initial  =   4.085400 E-final=   0.000000
# E-threshold= 4.10521E+00
# # energies = 67
#    E         xs
 1.000E-11 0.00000E+00
 2.530E-08 0.00000E+00
 2.000E-07 0.00000E+00
 1.000E-06 0.00000E+00
 1.000E-03 0.00000E+00
 2.000E-03 0.00000E+00
 5.000E-03 0.00000E+00
 1.000E-02 0.00000E+00
 2.000E-02 0.00000E+00
 5.000E-02 0.00000E+00
 1.000E-01 0.00000E+00
 2.000E-01 0.00000E+00
 3.000E-01 0.00000E+00
 4.000E-01 0.00000E+00
 5.000E-01 0.00000E+00
 7.500E-01 0.00000E+00
 1.000E+00 0.00000E+00
 1.200E+00 0.00000E+00
 1.400E+00 0.00000E+00
 1.600E+00 0.00000E+00
 1.800E+00 0.00000E+00
 2.000E+00 0.00000E+00
 2.200E+00 0.00000E+00
 2.400E+00 0.00000E+00
 2.600E+00 0.00000E+00
 2.800E+00 0.00000E+00
 3.000E+00 0.00000E+00
 3.200E+00 0.00000E+00
 3.400E+00 0.00000E+00
 3.600E+00 0.00000E+00
 3.800E+00 0.00000E+00
 4.000E+00 0.00000E+00
 4.200E+00 3.88239E+01
 4.400E+00 8.38603E+01
 4.600E+00 9.99039E+01
 4.800E+00 1.04690E+02
 5.000E+00 1.06519E+02
 5.500E+00 1.11048E+02
 6.000E+00 1.11332E+02
 6.500E+00 1.03887E+02
 7.000E+00 9.46293E+01
 7.500E+00 8.72629E+01
 8.000E+00 7.70040E+01
 8.500E+00 6.56441E+01
 9.000E+00 5.48968E+01
 9.500E+00 4.59946E+01
 1.000E+01 3.81134E+01
 1.100E+01 2.80670E+01
 1.200E+01 2.35147E+01
 1.300E+01 2.10957E+01
 1.400E+01 1.96577E+01
 1.500E+01 1.83974E+01
 1.600E+01 1.73542E+01
 1.700E+01 1.65177E+01
 1.800E+01 1.56641E+01
 1.900E+01 1.47998E+01
 2.000E+01 1.41404E+01
 2.100E+01 1.34041E+01
 2.200E+01 1.29292E+01
 2.300E+01 1.23324E+01
 2.400E+01 1.19302E+01
 2.500E+01 1.15528E+01
 2.600E+01 1.10412E+01
 2.700E+01 1.06995E+01
 2.800E+01 1.03395E+01
 2.900E+01 1.00539E+01
 3.000E+01 9.65263E+00
