# n + 208Pb: Gamma-ray intensity - 208Pb: Level  6 --> Level  4 - gamma energy    0.238127
# E-initial  =   3.946578 E-final=   3.708451
# E-threshold= 3.96572E+00
# # energies =    67
#    E           xs
 1.00000E-11 0.00000E+00
 2.53000E-08 0.00000E+00
 2.00000E-07 0.00000E+00
 1.00000E-06 0.00000E+00
 1.00000E-03 0.00000E+00
 2.00000E-03 0.00000E+00
 5.00000E-03 0.00000E+00
 1.00000E-02 0.00000E+00
 2.00000E-02 0.00000E+00
 5.00000E-02 0.00000E+00
 1.00000E-01 0.00000E+00
 2.00000E-01 0.00000E+00
 3.00000E-01 0.00000E+00
 4.00000E-01 0.00000E+00
 5.00000E-01 0.00000E+00
 7.50000E-01 0.00000E+00
 1.00000E+00 0.00000E+00
 1.20000E+00 0.00000E+00
 1.40000E+00 0.00000E+00
 1.60000E+00 0.00000E+00
 1.80000E+00 0.00000E+00
 2.00000E+00 0.00000E+00
 2.20000E+00 0.00000E+00
 2.40000E+00 0.00000E+00
 2.60000E+00 0.00000E+00
 2.80000E+00 0.00000E+00
 3.00000E+00 0.00000E+00
 3.20000E+00 0.00000E+00
 3.40000E+00 0.00000E+00
 3.60000E+00 0.00000E+00
 3.80000E+00 0.00000E+00
 4.00000E+00 4.02368E+00
 4.20000E+00 1.15047E+01
 4.40000E+00 1.49167E+01
 4.60000E+00 1.58998E+01
 4.80000E+00 1.58564E+01
 5.00000E+00 1.53206E+01
 5.50000E+00 1.38980E+01
 6.00000E+00 1.27557E+01
 6.50000E+00 1.18670E+01
 7.00000E+00 1.13137E+01
 7.50000E+00 1.10125E+01
 8.00000E+00 1.02158E+01
 8.50000E+00 8.69325E+00
 9.00000E+00 6.94150E+00
 9.50000E+00 5.21583E+00
 1.00000E+01 3.79176E+00
 1.10000E+01 1.93110E+00
 1.20000E+01 1.10267E+00
 1.30000E+01 7.47960E-01
 1.40000E+01 5.96263E-01
 1.50000E+01 5.18609E-01
 1.60000E+01 4.66440E-01
 1.70000E+01 4.36858E-01
 1.80000E+01 4.00142E-01
 1.90000E+01 3.71062E-01
 2.00000E+01 3.46804E-01
 2.10000E+01 3.26581E-01
 2.20000E+01 3.04477E-01
 2.30000E+01 2.86995E-01
 2.40000E+01 2.69648E-01
 2.50000E+01 2.47066E-01
 2.60000E+01 2.31611E-01
 2.70000E+01 2.21123E-01
 2.80000E+01 2.10137E-01
 2.90000E+01 2.00837E-01
 3.00000E+01 1.91834E-01
