# n + 208Pb: Gamma-ray intensity - 208Pb: Level  3 --> Level  1 - gamma energy    0.860556
# E-initial  =   3.475078 E-final=   2.614522
# E-threshold= 3.49193E+00
# # energies =    67
#    E           xs
 1.00000E-11 0.00000E+00
 2.53000E-08 0.00000E+00
 2.00000E-07 0.00000E+00
 1.00000E-06 0.00000E+00
 1.00000E-03 0.00000E+00
 2.00000E-03 0.00000E+00
 5.00000E-03 0.00000E+00
 1.00000E-02 0.00000E+00
 2.00000E-02 0.00000E+00
 5.00000E-02 0.00000E+00
 1.00000E-01 0.00000E+00
 2.00000E-01 0.00000E+00
 3.00000E-01 0.00000E+00
 4.00000E-01 0.00000E+00
 5.00000E-01 0.00000E+00
 7.50000E-01 0.00000E+00
 1.00000E+00 0.00000E+00
 1.20000E+00 0.00000E+00
 1.40000E+00 0.00000E+00
 1.60000E+00 0.00000E+00
 1.80000E+00 0.00000E+00
 2.00000E+00 0.00000E+00
 2.20000E+00 0.00000E+00
 2.40000E+00 0.00000E+00
 2.60000E+00 0.00000E+00
 2.80000E+00 0.00000E+00
 3.00000E+00 0.00000E+00
 3.20000E+00 0.00000E+00
 3.40000E+00 0.00000E+00
 3.60000E+00 4.81549E+01
 3.80000E+00 9.86383E+01
 4.00000E+00 1.35306E+02
 4.20000E+00 1.52629E+02
 4.40000E+00 1.63329E+02
 4.60000E+00 1.72312E+02
 4.80000E+00 1.80107E+02
 5.00000E+00 1.85072E+02
 5.50000E+00 1.81850E+02
 6.00000E+00 1.70519E+02
 6.50000E+00 1.62035E+02
 7.00000E+00 1.56777E+02
 7.50000E+00 1.53443E+02
 8.00000E+00 1.42969E+02
 8.50000E+00 1.22696E+02
 9.00000E+00 9.89825E+01
 9.50000E+00 7.53820E+01
 1.00000E+01 5.56252E+01
 1.10000E+01 2.94542E+01
 1.20000E+01 1.75702E+01
 1.30000E+01 1.24317E+01
 1.40000E+01 1.01982E+01
 1.50000E+01 9.02317E+00
 1.60000E+01 8.21288E+00
 1.70000E+01 7.73380E+00
 1.80000E+01 7.15793E+00
 1.90000E+01 6.69768E+00
 2.00000E+01 6.31454E+00
 2.10000E+01 5.98531E+00
 2.20000E+01 5.62373E+00
 2.30000E+01 5.33184E+00
 2.40000E+01 5.04413E+00
 2.50000E+01 4.67066E+00
 2.60000E+01 4.42081E+00
 2.70000E+01 4.23922E+00
 2.80000E+01 4.05258E+00
 2.90000E+01 3.88775E+00
 3.00000E+01 3.73165E+00
