# n + 208Pb: Gamma-ray intensity - 209Pb: Level  8 --> Level  3 - gamma energy    0.895910
# E-initial  =   2.463000 E-final=   1.567090
# E-threshold= 0.00000E+00
# # energies =    67
#    E           xs
 1.00000E-11 0.00000E+00
 2.53000E-08 0.00000E+00
 2.00000E-07 0.00000E+00
 1.00000E-06 3.63724E-02
 1.00000E-03 7.39340E-03
 2.00000E-03 7.72557E-03
 5.00000E-03 7.59162E-03
 1.00000E-02 5.52022E-03
 2.00000E-02 3.35283E-03
 5.00000E-02 1.66561E-03
 1.00000E-01 1.08811E-03
 2.00000E-01 8.72675E-04
 3.00000E-01 8.06850E-04
 4.00000E-01 7.81034E-04
 5.00000E-01 7.81232E-04
 7.50000E-01 8.52999E-04
 1.00000E+00 9.97747E-04
 1.20000E+00 1.16181E-03
 1.40000E+00 1.35853E-03
 1.60000E+00 1.60772E-03
 1.80000E+00 1.90789E-03
 2.00000E+00 2.26562E-03
 2.20000E+00 2.72214E-03
 2.40000E+00 3.23302E-03
 2.60000E+00 3.82737E-03
 2.80000E+00 2.94298E-03
 3.00000E+00 2.83632E-03
 3.20000E+00 2.98789E-03
 3.40000E+00 3.07997E-03
 3.60000E+00 3.19102E-03
 3.80000E+00 3.21349E-03
 4.00000E+00 3.31087E-03
 4.20000E+00 3.00344E-03
 4.40000E+00 2.42395E-03
 4.60000E+00 2.07105E-03
 4.80000E+00 1.94013E-03
 5.00000E+00 1.74402E-03
 5.50000E+00 1.30213E-03
 6.00000E+00 1.04723E-03
 6.50000E+00 9.31449E-04
 7.00000E+00 9.29824E-04
 7.50000E+00 9.77695E-04
 8.00000E+00 1.16893E-03
 8.50000E+00 1.51895E-03
 9.00000E+00 2.06659E-03
 9.50000E+00 3.02627E-03
 1.00000E+01 4.39711E-03
 1.10000E+01 6.27672E-03
 1.20000E+01 4.81162E-03
 1.30000E+01 3.22935E-03
 1.40000E+01 2.32235E-03
 1.50000E+01 1.85580E-03
 1.60000E+01 1.56518E-03
 1.70000E+01 1.62111E-03
 1.80000E+01 1.52814E-03
 1.90000E+01 1.50731E-03
 2.00000E+01 1.42243E-03
 2.10000E+01 1.26670E-03
 2.20000E+01 1.09303E-03
 2.30000E+01 1.03732E-03
 2.40000E+01 8.49826E-04
 2.50000E+01 7.96833E-04
 2.60000E+01 6.99331E-04
 2.70000E+01 6.67982E-04
 2.80000E+01 6.41788E-04
 2.90000E+01 5.85240E-04
 3.00000E+01 5.67047E-04
