# n + 208Pb: Gamma-ray intensity - 208Pb: Level 26 --> Level  2 - gamma energy    1.413040
# E-initial  =   4.610750 E-final=   3.197710
# E-threshold= 4.63311E+00
# # energies = 67
#    E         xs
 1.000E-11 0.00000E+00
 2.530E-08 0.00000E+00
 2.000E-07 0.00000E+00
 1.000E-06 0.00000E+00
 1.000E-03 0.00000E+00
 2.000E-03 0.00000E+00
 5.000E-03 0.00000E+00
 1.000E-02 0.00000E+00
 2.000E-02 0.00000E+00
 5.000E-02 0.00000E+00
 1.000E-01 0.00000E+00
 2.000E-01 0.00000E+00
 3.000E-01 0.00000E+00
 4.000E-01 0.00000E+00
 5.000E-01 0.00000E+00
 7.500E-01 0.00000E+00
 1.000E+00 0.00000E+00
 1.200E+00 0.00000E+00
 1.400E+00 0.00000E+00
 1.600E+00 0.00000E+00
 1.800E+00 0.00000E+00
 2.000E+00 0.00000E+00
 2.200E+00 0.00000E+00
 2.400E+00 0.00000E+00
 2.600E+00 0.00000E+00
 2.800E+00 0.00000E+00
 3.000E+00 0.00000E+00
 3.200E+00 0.00000E+00
 3.400E+00 0.00000E+00
 3.600E+00 0.00000E+00
 3.800E+00 0.00000E+00
 4.000E+00 0.00000E+00
 4.200E+00 0.00000E+00
 4.400E+00 0.00000E+00
 4.600E+00 0.00000E+00
 4.800E+00 4.07540E-01
 5.000E+00 1.12604E+00
 5.500E+00 5.19678E+00
 6.000E+00 1.30026E+01
 6.500E+00 2.29378E+01
 7.000E+00 3.43578E+01
 7.500E+00 4.82134E+01
 8.000E+00 6.37853E+01
 8.500E+00 7.93499E+01
 9.000E+00 9.19984E+01
 9.500E+00 9.83434E+01
 1.000E+01 9.68366E+01
 1.100E+01 8.03337E+01
 1.200E+01 5.80273E+01
 1.300E+01 4.24450E+01
 1.400E+01 3.41422E+01
 1.500E+01 2.97211E+01
 1.600E+01 2.74830E+01
 1.700E+01 2.68125E+01
 1.800E+01 2.60248E+01
 1.900E+01 2.53646E+01
 2.000E+01 2.51461E+01
 2.100E+01 2.46228E+01
 2.200E+01 2.41479E+01
 2.300E+01 2.36642E+01
 2.400E+01 2.30138E+01
 2.500E+01 2.19043E+01
 2.600E+01 2.09980E+01
 2.700E+01 2.02625E+01
 2.800E+01 1.94359E+01
 2.900E+01 1.85585E+01
 3.000E+01 1.79391E+01
