# n + 208Pb: Gamma-ray intensity - 208Pb: Level 19 --> Level  1 - gamma energy    1.614950
# E-initial  =   4.229500 E-final=   2.614550
# E-threshold= 4.25001E+00
# # energies = 67
#    E         xs
 1.000E-11 0.00000E+00
 2.530E-08 0.00000E+00
 2.000E-07 0.00000E+00
 1.000E-06 0.00000E+00
 1.000E-03 0.00000E+00
 2.000E-03 0.00000E+00
 5.000E-03 0.00000E+00
 1.000E-02 0.00000E+00
 2.000E-02 0.00000E+00
 5.000E-02 0.00000E+00
 1.000E-01 0.00000E+00
 2.000E-01 0.00000E+00
 3.000E-01 0.00000E+00
 4.000E-01 0.00000E+00
 5.000E-01 0.00000E+00
 7.500E-01 0.00000E+00
 1.000E+00 0.00000E+00
 1.200E+00 0.00000E+00
 1.400E+00 0.00000E+00
 1.600E+00 0.00000E+00
 1.800E+00 0.00000E+00
 2.000E+00 0.00000E+00
 2.200E+00 0.00000E+00
 2.400E+00 0.00000E+00
 2.600E+00 0.00000E+00
 2.800E+00 0.00000E+00
 3.000E+00 0.00000E+00
 3.200E+00 0.00000E+00
 3.400E+00 0.00000E+00
 3.600E+00 0.00000E+00
 3.800E+00 0.00000E+00
 4.000E+00 0.00000E+00
 4.200E+00 0.00000E+00
 4.400E+00 3.12317E+01
 4.600E+00 4.12263E+01
 4.800E+00 4.04040E+01
 5.000E+00 3.58517E+01
 5.500E+00 2.56400E+01
 6.000E+00 2.08741E+01
 6.500E+00 1.85807E+01
 7.000E+00 1.72771E+01
 7.500E+00 1.63709E+01
 8.000E+00 1.37287E+01
 8.500E+00 1.04974E+01
 9.000E+00 7.80764E+00
 9.500E+00 5.87367E+00
 1.000E+01 4.38595E+00
 1.100E+01 2.79780E+00
 1.200E+01 2.11697E+00
 1.300E+01 1.74790E+00
 1.400E+01 1.56192E+00
 1.500E+01 1.46218E+00
 1.600E+01 1.41946E+00
 1.700E+01 1.42415E+00
 1.800E+01 1.41891E+00
 1.900E+01 1.39603E+00
 2.000E+01 1.40439E+00
 2.100E+01 1.38475E+00
 2.200E+01 1.38593E+00
 2.300E+01 1.35439E+00
 2.400E+01 1.34724E+00
 2.500E+01 1.32326E+00
 2.600E+01 1.27805E+00
 2.700E+01 1.25884E+00
 2.800E+01 1.23654E+00
 2.900E+01 1.22401E+00
 3.000E+01 1.19377E+00
