# n + 208Pb: Gamma-ray intensity - 208Pb: Level 18 --> Level  2 - gamma energy    1.064160
# E-initial  =   4.261871 E-final=   3.197711
# E-threshold= 4.28254E+00
# # energies =    67
#    E           xs
 1.00000E-11 0.00000E+00
 2.53000E-08 0.00000E+00
 2.00000E-07 0.00000E+00
 1.00000E-06 0.00000E+00
 1.00000E-03 0.00000E+00
 2.00000E-03 0.00000E+00
 5.00000E-03 0.00000E+00
 1.00000E-02 0.00000E+00
 2.00000E-02 0.00000E+00
 5.00000E-02 0.00000E+00
 1.00000E-01 0.00000E+00
 2.00000E-01 0.00000E+00
 3.00000E-01 0.00000E+00
 4.00000E-01 0.00000E+00
 5.00000E-01 0.00000E+00
 7.50000E-01 0.00000E+00
 1.00000E+00 0.00000E+00
 1.20000E+00 0.00000E+00
 1.40000E+00 0.00000E+00
 1.60000E+00 0.00000E+00
 1.80000E+00 0.00000E+00
 2.00000E+00 0.00000E+00
 2.20000E+00 0.00000E+00
 2.40000E+00 0.00000E+00
 2.60000E+00 0.00000E+00
 2.80000E+00 0.00000E+00
 3.00000E+00 0.00000E+00
 3.20000E+00 0.00000E+00
 3.40000E+00 0.00000E+00
 3.60000E+00 0.00000E+00
 3.80000E+00 0.00000E+00
 4.00000E+00 0.00000E+00
 4.20000E+00 0.00000E+00
 4.40000E+00 6.55307E-01
 4.60000E+00 1.13548E+00
 4.80000E+00 1.41506E+00
 5.00000E+00 1.51719E+00
 5.50000E+00 1.42345E+00
 6.00000E+00 1.26671E+00
 6.50000E+00 1.14858E+00
 7.00000E+00 1.06041E+00
 7.50000E+00 1.00455E+00
 8.00000E+00 9.16694E-01
 8.50000E+00 7.72347E-01
 9.00000E+00 6.12050E-01
 9.50000E+00 4.56674E-01
 1.00000E+01 3.29342E-01
 1.10000E+01 1.65001E-01
 1.20000E+01 9.25753E-02
 1.30000E+01 6.17923E-02
 1.40000E+01 4.87650E-02
 1.50000E+01 4.22975E-02
 1.60000E+01 3.81045E-02
 1.70000E+01 3.58832E-02
 1.80000E+01 3.30737E-02
 1.90000E+01 3.08245E-02
 2.00000E+01 2.90038E-02
 2.10000E+01 2.74820E-02
 2.20000E+01 2.57908E-02
 2.30000E+01 2.44922E-02
 2.40000E+01 2.31215E-02
 2.50000E+01 2.14801E-02
 2.60000E+01 2.02365E-02
 2.70000E+01 1.94213E-02
 2.80000E+01 1.84151E-02
 2.90000E+01 1.76624E-02
 3.00000E+01 1.69500E-02
