# n + 208Pb: Gamma-ray intensity - 208Pb: Level 17 --> Level  3 - gamma energy    0.705300
# E-initial  =   4.180410 E-final=   3.475110
# E-threshold= 4.20068E+00
# # energies = 67
#    E         xs
 1.000E-11 0.00000E+00
 2.530E-08 0.00000E+00
 2.000E-07 0.00000E+00
 1.000E-06 0.00000E+00
 1.000E-03 0.00000E+00
 2.000E-03 0.00000E+00
 5.000E-03 0.00000E+00
 1.000E-02 0.00000E+00
 2.000E-02 0.00000E+00
 5.000E-02 0.00000E+00
 1.000E-01 0.00000E+00
 2.000E-01 0.00000E+00
 3.000E-01 0.00000E+00
 4.000E-01 0.00000E+00
 5.000E-01 0.00000E+00
 7.500E-01 0.00000E+00
 1.000E+00 0.00000E+00
 1.200E+00 0.00000E+00
 1.400E+00 0.00000E+00
 1.600E+00 0.00000E+00
 1.800E+00 0.00000E+00
 2.000E+00 0.00000E+00
 2.200E+00 0.00000E+00
 2.400E+00 0.00000E+00
 2.600E+00 0.00000E+00
 2.800E+00 0.00000E+00
 3.000E+00 0.00000E+00
 3.200E+00 0.00000E+00
 3.400E+00 0.00000E+00
 3.600E+00 0.00000E+00
 3.800E+00 0.00000E+00
 4.000E+00 0.00000E+00
 4.200E+00 0.00000E+00
 4.400E+00 3.44733E+00
 4.600E+00 4.35429E+00
 4.800E+00 4.39085E+00
 5.000E+00 4.09377E+00
 5.500E+00 3.40400E+00
 6.000E+00 3.17362E+00
 6.500E+00 3.15245E+00
 7.000E+00 3.21587E+00
 7.500E+00 3.32045E+00
 8.000E+00 3.32652E+00
 8.500E+00 3.06658E+00
 9.000E+00 2.59701E+00
 9.500E+00 2.07920E+00
 1.000E+01 1.61179E+00
 1.100E+01 9.73901E-01
 1.200E+01 6.69502E-01
 1.300E+01 5.34872E-01
 1.400E+01 4.69602E-01
 1.500E+01 4.35909E-01
 1.600E+01 4.14101E-01
 1.700E+01 4.02557E-01
 1.800E+01 3.87558E-01
 1.900E+01 3.75480E-01
 2.000E+01 3.64013E-01
 2.100E+01 3.54450E-01
 2.200E+01 3.43353E-01
 2.300E+01 3.33972E-01
 2.400E+01 3.22491E-01
 2.500E+01 3.12360E-01
 2.600E+01 3.01527E-01
 2.700E+01 2.92365E-01
 2.800E+01 2.83940E-01
 2.900E+01 2.76043E-01
 3.000E+01 2.68850E-01
