# n + 208Pb: Gamma-ray intensity - 208Pb: Level 28 --> Level  1 - gamma energy    2.083801
# E-initial  =   4.698323 E-final=   2.614522
# E-threshold= 4.72111E+00
# # energies =    67
#    E           xs
 1.00000E-11 0.00000E+00
 2.53000E-08 0.00000E+00
 2.00000E-07 0.00000E+00
 1.00000E-06 0.00000E+00
 1.00000E-03 0.00000E+00
 2.00000E-03 0.00000E+00
 5.00000E-03 0.00000E+00
 1.00000E-02 0.00000E+00
 2.00000E-02 0.00000E+00
 5.00000E-02 0.00000E+00
 1.00000E-01 0.00000E+00
 2.00000E-01 0.00000E+00
 3.00000E-01 0.00000E+00
 4.00000E-01 0.00000E+00
 5.00000E-01 0.00000E+00
 7.50000E-01 0.00000E+00
 1.00000E+00 0.00000E+00
 1.20000E+00 0.00000E+00
 1.40000E+00 0.00000E+00
 1.60000E+00 0.00000E+00
 1.80000E+00 0.00000E+00
 2.00000E+00 0.00000E+00
 2.20000E+00 0.00000E+00
 2.40000E+00 0.00000E+00
 2.60000E+00 0.00000E+00
 2.80000E+00 0.00000E+00
 3.00000E+00 0.00000E+00
 3.20000E+00 0.00000E+00
 3.40000E+00 0.00000E+00
 3.60000E+00 0.00000E+00
 3.80000E+00 0.00000E+00
 4.00000E+00 0.00000E+00
 4.20000E+00 0.00000E+00
 4.40000E+00 0.00000E+00
 4.60000E+00 0.00000E+00
 4.80000E+00 1.66026E+00
 5.00000E+00 3.50240E+00
 5.50000E+00 4.82471E+00
 6.00000E+00 4.26793E+00
 6.50000E+00 3.77637E+00
 7.00000E+00 3.41631E+00
 7.50000E+00 3.11086E+00
 8.00000E+00 2.66457E+00
 8.50000E+00 2.11256E+00
 9.00000E+00 1.62698E+00
 9.50000E+00 1.20667E+00
 1.00000E+01 8.88688E-01
 1.10000E+01 5.11773E-01
 1.20000E+01 3.48646E-01
 1.30000E+01 2.76838E-01
 1.40000E+01 2.45403E-01
 1.50000E+01 2.26491E-01
 1.60000E+01 2.11822E-01
 1.70000E+01 2.04277E-01
 1.80000E+01 1.94529E-01
 1.90000E+01 1.86610E-01
 2.00000E+01 1.81419E-01
 2.10000E+01 1.76601E-01
 2.20000E+01 1.69110E-01
 2.30000E+01 1.64119E-01
 2.40000E+01 1.58483E-01
 2.50000E+01 1.51592E-01
 2.60000E+01 1.47122E-01
 2.70000E+01 1.43879E-01
 2.80000E+01 1.39291E-01
 2.90000E+01 1.34916E-01
 3.00000E+01 1.31656E-01
