# n + 208Pb: Gamma-ray intensity - 208Pb: Level 20 --> Level  0 - gamma energy    4.323946
# E-initial  =   4.323946 E-final=   0.000000
# E-threshold= 4.34492E+00
# # energies =    67
#    E           xs
 1.00000E-11 0.00000E+00
 2.53000E-08 0.00000E+00
 2.00000E-07 0.00000E+00
 1.00000E-06 0.00000E+00
 1.00000E-03 0.00000E+00
 2.00000E-03 0.00000E+00
 5.00000E-03 0.00000E+00
 1.00000E-02 0.00000E+00
 2.00000E-02 0.00000E+00
 5.00000E-02 0.00000E+00
 1.00000E-01 0.00000E+00
 2.00000E-01 0.00000E+00
 3.00000E-01 0.00000E+00
 4.00000E-01 0.00000E+00
 5.00000E-01 0.00000E+00
 7.50000E-01 0.00000E+00
 1.00000E+00 0.00000E+00
 1.20000E+00 0.00000E+00
 1.40000E+00 0.00000E+00
 1.60000E+00 0.00000E+00
 1.80000E+00 0.00000E+00
 2.00000E+00 0.00000E+00
 2.20000E+00 0.00000E+00
 2.40000E+00 0.00000E+00
 2.60000E+00 0.00000E+00
 2.80000E+00 0.00000E+00
 3.00000E+00 0.00000E+00
 3.20000E+00 0.00000E+00
 3.40000E+00 0.00000E+00
 3.60000E+00 0.00000E+00
 3.80000E+00 0.00000E+00
 4.00000E+00 0.00000E+00
 4.20000E+00 0.00000E+00
 4.40000E+00 3.11603E-02
 4.60000E+00 1.21135E-01
 4.80000E+00 1.73124E-01
 5.00000E+00 2.01067E-01
 5.50000E+00 2.45724E-01
 6.00000E+00 2.82739E-01
 6.50000E+00 2.93036E-01
 7.00000E+00 2.84817E-01
 7.50000E+00 2.74850E-01
 8.00000E+00 2.54125E-01
 8.50000E+00 2.18503E-01
 9.00000E+00 1.78947E-01
 9.50000E+00 1.40465E-01
 1.00000E+01 1.08956E-01
 1.10000E+01 6.79575E-02
 1.20000E+01 4.97583E-02
 1.30000E+01 4.18773E-02
 1.40000E+01 3.80885E-02
 1.50000E+01 3.55747E-02
 1.60000E+01 3.34702E-02
 1.70000E+01 3.18994E-02
 1.80000E+01 3.01677E-02
 1.90000E+01 2.86763E-02
 2.00000E+01 2.72965E-02
 2.10000E+01 2.60962E-02
 2.20000E+01 2.48879E-02
 2.30000E+01 2.38949E-02
 2.40000E+01 2.29851E-02
 2.50000E+01 2.19546E-02
 2.60000E+01 2.11319E-02
 2.70000E+01 2.04803E-02
 2.80000E+01 1.98404E-02
 2.90000E+01 1.92355E-02
 3.00000E+01 1.86682E-02
