# n + 208Pb: Gamma-ray intensity - 209Pb: Level  2 --> Level  0 - gamma energy    1.423000
# E-initial  =   1.423000 E-final=   0.000000
# E-threshold= 0.00000E+00
# # energies = 67
#    E         xs
 1.000E-11 0.00000E+00
 2.530E-08 0.00000E+00
 2.000E-07 0.00000E+00
 1.000E-06 0.00000E+00
 1.000E-03 0.00000E+00
 2.000E-03 0.00000E+00
 5.000E-03 0.00000E+00
 1.000E-02 0.00000E+00
 2.000E-02 0.00000E+00
 5.000E-02 1.63644E-09
 1.000E-01 3.90077E-08
 2.000E-01 4.77936E-07
 3.000E-01 3.82712E-05
 4.000E-01 1.07736E-04
 5.000E-01 2.00502E-04
 7.500E-01 4.70998E-04
 1.000E+00 2.30279E-03
 1.200E+00 4.18380E-03
 1.400E+00 7.94145E-03
 1.600E+00 1.27329E-02
 1.800E+00 1.95577E-02
 2.000E+00 3.02391E-02
 2.200E+00 4.44505E-02
 2.400E+00 6.39893E-02
 2.600E+00 9.05648E-02
 2.800E+00 1.16665E-01
 3.000E+00 1.33008E-01
 3.200E+00 1.50527E-01
 3.400E+00 7.65687E-02
 3.600E+00 5.94163E-02
 3.800E+00 4.97608E-02
 4.000E+00 3.86739E-02
 4.200E+00 1.97218E-02
 4.400E+00 1.83130E-02
 4.600E+00 1.72709E-02
 4.800E+00 1.77921E-02
 5.000E+00 1.80534E-02
 5.500E+00 2.21865E-02
 6.000E+00 2.85528E-02
 6.500E+00 3.82073E-02
 7.000E+00 5.30028E-02
 7.500E+00 7.54304E-02
 8.000E+00 1.10381E-01
 8.500E+00 1.61708E-01
 9.000E+00 2.21071E-01
 9.500E+00 2.61457E-01
 1.000E+01 2.69147E-01
 1.100E+01 2.60999E-01
 1.200E+01 2.82104E-01
 1.300E+01 3.04030E-01
 1.400E+01 2.99997E-01
 1.500E+01 2.60610E-01
 1.600E+01 2.07301E-01
 1.700E+01 1.66514E-01
 1.800E+01 1.41223E-01
 1.900E+01 1.25578E-01
 2.000E+01 1.15530E-01
 2.100E+01 1.07636E-01
 2.200E+01 1.01041E-01
 2.300E+01 9.57719E-02
 2.400E+01 9.00178E-02
 2.500E+01 8.64200E-02
 2.600E+01 8.31855E-02
 2.700E+01 7.97798E-02
 2.800E+01 7.61563E-02
 2.900E+01 7.51020E-02
 3.000E+01 7.33219E-02
