# n + 208Pb: Gamma-ray intensity - 208Pb: Level  4 --> Level  1 - gamma energy    1.093930
# E-initial  =   3.708450 E-final=   2.614520
# E-threshold= 3.72644E+00
# # energies = 67
#    E         xs
 1.000E-11 0.00000E+00
 2.530E-08 0.00000E+00
 2.000E-07 0.00000E+00
 1.000E-06 0.00000E+00
 1.000E-03 0.00000E+00
 2.000E-03 0.00000E+00
 5.000E-03 0.00000E+00
 1.000E-02 0.00000E+00
 2.000E-02 0.00000E+00
 5.000E-02 0.00000E+00
 1.000E-01 0.00000E+00
 2.000E-01 0.00000E+00
 3.000E-01 0.00000E+00
 4.000E-01 0.00000E+00
 5.000E-01 0.00000E+00
 7.500E-01 0.00000E+00
 1.000E+00 0.00000E+00
 1.200E+00 0.00000E+00
 1.400E+00 0.00000E+00
 1.600E+00 0.00000E+00
 1.800E+00 0.00000E+00
 2.000E+00 0.00000E+00
 2.200E+00 0.00000E+00
 2.400E+00 0.00000E+00
 2.600E+00 0.00000E+00
 2.800E+00 0.00000E+00
 3.000E+00 0.00000E+00
 3.200E+00 0.00000E+00
 3.400E+00 0.00000E+00
 3.600E+00 0.00000E+00
 3.800E+00 7.07493E-01
 4.000E+00 1.85085E+00
 4.200E+00 2.84044E+00
 4.400E+00 3.47186E+00
 4.600E+00 3.80231E+00
 4.800E+00 4.04811E+00
 5.000E+00 4.23251E+00
 5.500E+00 4.43749E+00
 6.000E+00 4.48559E+00
 6.500E+00 4.56347E+00
 7.000E+00 4.72301E+00
 7.500E+00 4.94600E+00
 8.000E+00 5.07796E+00
 8.500E+00 4.95329E+00
 9.000E+00 4.52102E+00
 9.500E+00 3.89250E+00
 1.000E+01 3.19727E+00
 1.100E+01 2.00665E+00
 1.200E+01 1.29023E+00
 1.300E+01 9.32632E-01
 1.400E+01 7.62102E-01
 1.500E+01 6.74475E-01
 1.600E+01 6.21315E-01
 1.700E+01 5.86774E-01
 1.800E+01 5.52033E-01
 1.900E+01 5.22559E-01
 2.000E+01 5.00462E-01
 2.100E+01 4.77399E-01
 2.200E+01 4.54628E-01
 2.300E+01 4.34923E-01
 2.400E+01 4.14591E-01
 2.500E+01 3.89991E-01
 2.600E+01 3.70119E-01
 2.700E+01 3.54393E-01
 2.800E+01 3.41045E-01
 2.900E+01 3.29108E-01
 3.000E+01 3.17480E-01
