# n + 208Pb: Gamma-ray intensity - 208Pb: Level 28 --> Level  8 - gamma energy    0.702880
# E-initial  =   4.698320 E-final=   3.995440
# E-threshold= 4.72111E+00
# # energies = 67
#    E         xs
 1.000E-11 0.00000E+00
 2.530E-08 0.00000E+00
 2.000E-07 0.00000E+00
 1.000E-06 0.00000E+00
 1.000E-03 0.00000E+00
 2.000E-03 0.00000E+00
 5.000E-03 0.00000E+00
 1.000E-02 0.00000E+00
 2.000E-02 0.00000E+00
 5.000E-02 0.00000E+00
 1.000E-01 0.00000E+00
 2.000E-01 0.00000E+00
 3.000E-01 0.00000E+00
 4.000E-01 0.00000E+00
 5.000E-01 0.00000E+00
 7.500E-01 0.00000E+00
 1.000E+00 0.00000E+00
 1.200E+00 0.00000E+00
 1.400E+00 0.00000E+00
 1.600E+00 0.00000E+00
 1.800E+00 0.00000E+00
 2.000E+00 0.00000E+00
 2.200E+00 0.00000E+00
 2.400E+00 0.00000E+00
 2.600E+00 0.00000E+00
 2.800E+00 0.00000E+00
 3.000E+00 0.00000E+00
 3.200E+00 0.00000E+00
 3.400E+00 0.00000E+00
 3.600E+00 0.00000E+00
 3.800E+00 0.00000E+00
 4.000E+00 0.00000E+00
 4.200E+00 0.00000E+00
 4.400E+00 0.00000E+00
 4.600E+00 0.00000E+00
 4.800E+00 2.52207E-01
 5.000E+00 5.27746E-01
 5.500E+00 7.39698E-01
 6.000E+00 6.63691E-01
 6.500E+00 5.90311E-01
 7.000E+00 5.32859E-01
 7.500E+00 4.81529E-01
 8.000E+00 4.12072E-01
 8.500E+00 3.29111E-01
 9.000E+00 2.54769E-01
 9.500E+00 1.88493E-01
 1.000E+01 1.36321E-01
 1.100E+01 7.16028E-02
 1.200E+01 4.20074E-02
 1.300E+01 2.83648E-02
 1.400E+01 2.26114E-02
 1.500E+01 1.96345E-02
 1.600E+01 1.79899E-02
 1.700E+01 1.72726E-02
 1.800E+01 1.62374E-02
 1.900E+01 1.52888E-02
 2.000E+01 1.49072E-02
 2.100E+01 1.44310E-02
 2.200E+01 1.37037E-02
 2.300E+01 1.33503E-02
 2.400E+01 1.28414E-02
 2.500E+01 1.21980E-02
 2.600E+01 1.18073E-02
 2.700E+01 1.15632E-02
 2.800E+01 1.12818E-02
 2.900E+01 1.08914E-02
 3.000E+01 1.06371E-02
