# n + 208Pb: Gamma-ray intensity - 209Pb: Level  1 --> Level  0 - gamma energy    0.778800
# E-initial  =   0.778800 E-final=   0.000000
# E-threshold= 0.00000E+00
# # energies = 67
#    E         xs
 1.000E-11 0.00000E+00
 2.530E-08 0.00000E+00
 2.000E-07 0.00000E+00
 1.000E-06 1.09789E-04
 1.000E-03 7.52281E-05
 2.000E-03 1.11967E-04
 5.000E-03 1.58194E-04
 1.000E-02 1.35508E-04
 2.000E-02 9.07449E-05
 5.000E-02 7.56522E-04
 1.000E-01 1.63496E-03
 2.000E-01 3.91109E-03
 3.000E-01 7.31071E-03
 4.000E-01 1.10449E-02
 5.000E-01 1.51264E-02
 7.500E-01 2.44337E-02
 1.000E+00 3.79703E-02
 1.200E+00 5.09923E-02
 1.400E+00 6.84505E-02
 1.600E+00 8.98056E-02
 1.800E+00 1.16604E-01
 2.000E+00 1.50391E-01
 2.200E+00 1.92412E-01
 2.400E+00 2.44329E-01
 2.600E+00 3.08662E-01
 2.800E+00 3.15149E-01
 3.000E+00 3.12721E-01
 3.200E+00 3.25946E-01
 3.400E+00 1.80805E-01
 3.600E+00 1.61827E-01
 3.800E+00 1.46037E-01
 4.000E+00 1.29877E-01
 4.200E+00 1.03470E-01
 4.400E+00 9.51315E-02
 4.600E+00 8.42030E-02
 4.800E+00 7.49953E-02
 5.000E+00 7.23047E-02
 5.500E+00 7.05372E-02
 6.000E+00 8.18080E-02
 6.500E+00 1.09688E-01
 7.000E+00 1.62486E-01
 7.500E+00 2.48387E-01
 8.000E+00 3.53045E-01
 8.500E+00 4.34721E-01
 9.000E+00 4.74885E-01
 9.500E+00 4.66905E-01
 1.000E+01 4.60795E-01
 1.100E+01 4.13238E-01
 1.200E+01 3.88994E-01
 1.300E+01 3.46252E-01
 1.400E+01 2.95504E-01
 1.500E+01 2.38005E-01
 1.600E+01 1.86084E-01
 1.700E+01 1.51655E-01
 1.800E+01 1.29605E-01
 1.900E+01 1.13767E-01
 2.000E+01 1.02921E-01
 2.100E+01 9.56927E-02
 2.200E+01 8.98469E-02
 2.300E+01 8.47914E-02
 2.400E+01 8.02248E-02
 2.500E+01 7.71904E-02
 2.600E+01 7.36385E-02
 2.700E+01 7.04202E-02
 2.800E+01 6.77695E-02
 2.900E+01 6.58342E-02
 3.000E+01 6.38810E-02
