# n + 208Pb: Gamma-ray intensity - 208Pb: Level 27 --> Level  5 - gamma energy    0.760300
# E-initial  =   4.680266 E-final=   3.919966
# E-threshold= 4.70296E+00
# # energies =    67
#    E           xs
 1.00000E-11 0.00000E+00
 2.53000E-08 0.00000E+00
 2.00000E-07 0.00000E+00
 1.00000E-06 0.00000E+00
 1.00000E-03 0.00000E+00
 2.00000E-03 0.00000E+00
 5.00000E-03 0.00000E+00
 1.00000E-02 0.00000E+00
 2.00000E-02 0.00000E+00
 5.00000E-02 0.00000E+00
 1.00000E-01 0.00000E+00
 2.00000E-01 0.00000E+00
 3.00000E-01 0.00000E+00
 4.00000E-01 0.00000E+00
 5.00000E-01 0.00000E+00
 7.50000E-01 0.00000E+00
 1.00000E+00 0.00000E+00
 1.20000E+00 0.00000E+00
 1.40000E+00 0.00000E+00
 1.60000E+00 0.00000E+00
 1.80000E+00 0.00000E+00
 2.00000E+00 0.00000E+00
 2.20000E+00 0.00000E+00
 2.40000E+00 0.00000E+00
 2.60000E+00 0.00000E+00
 2.80000E+00 0.00000E+00
 3.00000E+00 0.00000E+00
 3.20000E+00 0.00000E+00
 3.40000E+00 0.00000E+00
 3.60000E+00 0.00000E+00
 3.80000E+00 0.00000E+00
 4.00000E+00 0.00000E+00
 4.20000E+00 0.00000E+00
 4.40000E+00 0.00000E+00
 4.60000E+00 0.00000E+00
 4.80000E+00 6.09973E-01
 5.00000E+00 2.55898E+00
 5.50000E+00 6.42581E+00
 6.00000E+00 8.42641E+00
 6.50000E+00 1.06580E+01
 7.00000E+00 1.31190E+01
 7.50000E+00 1.56036E+01
 8.00000E+00 1.80487E+01
 8.50000E+00 1.99613E+01
 9.00000E+00 2.02762E+01
 9.50000E+00 1.87854E+01
 1.00000E+01 1.60343E+01
 1.10000E+01 1.01731E+01
 1.20000E+01 6.10962E+00
 1.30000E+01 4.13603E+00
 1.40000E+01 3.26203E+00
 1.50000E+01 2.86843E+00
 1.60000E+01 2.66837E+00
 1.70000E+01 2.56019E+00
 1.80000E+01 2.42163E+00
 1.90000E+01 2.29663E+00
 2.00000E+01 2.22926E+00
 2.10000E+01 2.13612E+00
 2.20000E+01 2.03948E+00
 2.30000E+01 1.96768E+00
 2.40000E+01 1.88021E+00
 2.50000E+01 1.77457E+00
 2.60000E+01 1.69779E+00
 2.70000E+01 1.60451E+00
 2.80000E+01 1.52772E+00
 2.90000E+01 1.47014E+00
 3.00000E+01 1.41671E+00
