# n + 208Pb: Gamma-ray intensity - 208Pb: Level 26 --> Level  9 - gamma energy    0.573310
# E-initial  =   4.610750 E-final=   4.037440
# E-threshold= 4.63311E+00
# # energies = 67
#    E         xs
 1.000E-11 0.00000E+00
 2.530E-08 0.00000E+00
 2.000E-07 0.00000E+00
 1.000E-06 0.00000E+00
 1.000E-03 0.00000E+00
 2.000E-03 0.00000E+00
 5.000E-03 0.00000E+00
 1.000E-02 0.00000E+00
 2.000E-02 0.00000E+00
 5.000E-02 0.00000E+00
 1.000E-01 0.00000E+00
 2.000E-01 0.00000E+00
 3.000E-01 0.00000E+00
 4.000E-01 0.00000E+00
 5.000E-01 0.00000E+00
 7.500E-01 0.00000E+00
 1.000E+00 0.00000E+00
 1.200E+00 0.00000E+00
 1.400E+00 0.00000E+00
 1.600E+00 0.00000E+00
 1.800E+00 0.00000E+00
 2.000E+00 0.00000E+00
 2.200E+00 0.00000E+00
 2.400E+00 0.00000E+00
 2.600E+00 0.00000E+00
 2.800E+00 0.00000E+00
 3.000E+00 0.00000E+00
 3.200E+00 0.00000E+00
 3.400E+00 0.00000E+00
 3.600E+00 0.00000E+00
 3.800E+00 0.00000E+00
 4.000E+00 0.00000E+00
 4.200E+00 0.00000E+00
 4.400E+00 0.00000E+00
 4.600E+00 0.00000E+00
 4.800E+00 1.26339E-02
 5.000E+00 3.49075E-02
 5.500E+00 1.61102E-01
 6.000E+00 4.03085E-01
 6.500E+00 7.11078E-01
 7.000E+00 1.06510E+00
 7.500E+00 1.49463E+00
 8.000E+00 1.97736E+00
 8.500E+00 2.45987E+00
 9.000E+00 2.85197E+00
 9.500E+00 3.04867E+00
 1.000E+01 3.00196E+00
 1.100E+01 2.49037E+00
 1.200E+01 1.79886E+00
 1.300E+01 1.31581E+00
 1.400E+01 1.05842E+00
 1.500E+01 9.21361E-01
 1.600E+01 8.51980E-01
 1.700E+01 8.31195E-01
 1.800E+01 8.06776E-01
 1.900E+01 7.86308E-01
 2.000E+01 7.79535E-01
 2.100E+01 7.63313E-01
 2.200E+01 7.48592E-01
 2.300E+01 7.33597E-01
 2.400E+01 7.13434E-01
 2.500E+01 6.79038E-01
 2.600E+01 6.50943E-01
 2.700E+01 6.28144E-01
 2.800E+01 6.02517E-01
 2.900E+01 5.75320E-01
 3.000E+01 5.56117E-01
