# n + 208Pb: Gamma-ray intensity - 208Pb: Level 28 --> Level  3 - gamma energy    1.223240
# E-initial  =   4.698320 E-final=   3.475080
# E-threshold= 4.72111E+00
# # energies = 67
#    E         xs
 1.000E-11 0.00000E+00
 2.530E-08 0.00000E+00
 2.000E-07 0.00000E+00
 1.000E-06 0.00000E+00
 1.000E-03 0.00000E+00
 2.000E-03 0.00000E+00
 5.000E-03 0.00000E+00
 1.000E-02 0.00000E+00
 2.000E-02 0.00000E+00
 5.000E-02 0.00000E+00
 1.000E-01 0.00000E+00
 2.000E-01 0.00000E+00
 3.000E-01 0.00000E+00
 4.000E-01 0.00000E+00
 5.000E-01 0.00000E+00
 7.500E-01 0.00000E+00
 1.000E+00 0.00000E+00
 1.200E+00 0.00000E+00
 1.400E+00 0.00000E+00
 1.600E+00 0.00000E+00
 1.800E+00 0.00000E+00
 2.000E+00 0.00000E+00
 2.200E+00 0.00000E+00
 2.400E+00 0.00000E+00
 2.600E+00 0.00000E+00
 2.800E+00 0.00000E+00
 3.000E+00 0.00000E+00
 3.200E+00 0.00000E+00
 3.400E+00 0.00000E+00
 3.600E+00 0.00000E+00
 3.800E+00 0.00000E+00
 4.000E+00 0.00000E+00
 4.200E+00 0.00000E+00
 4.400E+00 0.00000E+00
 4.600E+00 0.00000E+00
 4.800E+00 6.15026E+00
 5.000E+00 1.28695E+01
 5.500E+00 1.80381E+01
 6.000E+00 1.61846E+01
 6.500E+00 1.43952E+01
 7.000E+00 1.29941E+01
 7.500E+00 1.17424E+01
 8.000E+00 1.00487E+01
 8.500E+00 8.02560E+00
 9.000E+00 6.21271E+00
 9.500E+00 4.59654E+00
 1.000E+01 3.32428E+00
 1.100E+01 1.74609E+00
 1.200E+01 1.02438E+00
 1.300E+01 6.91695E-01
 1.400E+01 5.51394E-01
 1.500E+01 4.78801E-01
 1.600E+01 4.38696E-01
 1.700E+01 4.21203E-01
 1.800E+01 3.95960E-01
 1.900E+01 3.72828E-01
 2.000E+01 3.63522E-01
 2.100E+01 3.51911E-01
 2.200E+01 3.34176E-01
 2.300E+01 3.25556E-01
 2.400E+01 3.13147E-01
 2.500E+01 2.97456E-01
 2.600E+01 2.87929E-01
 2.700E+01 2.81978E-01
 2.800E+01 2.75115E-01
 2.900E+01 2.65594E-01
 3.000E+01 2.59393E-01
