# n + 208Pb: Gamma-ray intensity - 208Pb: Level 14 --> Level  3 - gamma energy    0.650200
# E-initial  =   4.125310 E-final=   3.475110
# E-threshold= 4.14532E+00
# # energies = 67
#    E         xs
 1.000E-11 0.00000E+00
 2.530E-08 0.00000E+00
 2.000E-07 0.00000E+00
 1.000E-06 0.00000E+00
 1.000E-03 0.00000E+00
 2.000E-03 0.00000E+00
 5.000E-03 0.00000E+00
 1.000E-02 0.00000E+00
 2.000E-02 0.00000E+00
 5.000E-02 0.00000E+00
 1.000E-01 0.00000E+00
 2.000E-01 0.00000E+00
 3.000E-01 0.00000E+00
 4.000E-01 0.00000E+00
 5.000E-01 0.00000E+00
 7.500E-01 0.00000E+00
 1.000E+00 0.00000E+00
 1.200E+00 0.00000E+00
 1.400E+00 0.00000E+00
 1.600E+00 0.00000E+00
 1.800E+00 0.00000E+00
 2.000E+00 0.00000E+00
 2.200E+00 0.00000E+00
 2.400E+00 0.00000E+00
 2.600E+00 0.00000E+00
 2.800E+00 0.00000E+00
 3.000E+00 0.00000E+00
 3.200E+00 0.00000E+00
 3.400E+00 0.00000E+00
 3.600E+00 0.00000E+00
 3.800E+00 0.00000E+00
 4.000E+00 0.00000E+00
 4.200E+00 5.61673E+00
 4.400E+00 1.23803E+01
 4.600E+00 1.57274E+01
 4.800E+00 1.69089E+01
 5.000E+00 1.69303E+01
 5.500E+00 1.54929E+01
 6.000E+00 1.41090E+01
 6.500E+00 1.30782E+01
 7.000E+00 1.23535E+01
 7.500E+00 1.19483E+01
 8.000E+00 1.11972E+01
 8.500E+00 9.83659E+00
 9.000E+00 8.13839E+00
 9.500E+00 6.46241E+00
 1.000E+01 4.94254E+00
 1.100E+01 2.81803E+00
 1.200E+01 1.76124E+00
 1.300E+01 1.25380E+00
 1.400E+01 1.01402E+00
 1.500E+01 8.87719E-01
 1.600E+01 8.10863E-01
 1.700E+01 7.69417E-01
 1.800E+01 7.20244E-01
 1.900E+01 6.81705E-01
 2.000E+01 6.51718E-01
 2.100E+01 6.21933E-01
 2.200E+01 6.04919E-01
 2.300E+01 5.77353E-01
 2.400E+01 5.50873E-01
 2.500E+01 5.32486E-01
 2.600E+01 5.04854E-01
 2.700E+01 4.87371E-01
 2.800E+01 4.65119E-01
 2.900E+01 4.56312E-01
 3.000E+01 4.35282E-01
