# n + 208Pb: Gamma-ray intensity - 208Pb: Level 12 --> Level  2 - gamma energy    0.927636
# E-initial  =   4.125347 E-final=   3.197711
# E-threshold= 4.14535E+00
# # energies =    67
#    E           xs
 1.00000E-11 0.00000E+00
 2.53000E-08 0.00000E+00
 2.00000E-07 0.00000E+00
 1.00000E-06 0.00000E+00
 1.00000E-03 0.00000E+00
 2.00000E-03 0.00000E+00
 5.00000E-03 0.00000E+00
 1.00000E-02 0.00000E+00
 2.00000E-02 0.00000E+00
 5.00000E-02 0.00000E+00
 1.00000E-01 0.00000E+00
 2.00000E-01 0.00000E+00
 3.00000E-01 0.00000E+00
 4.00000E-01 0.00000E+00
 5.00000E-01 0.00000E+00
 7.50000E-01 0.00000E+00
 1.00000E+00 0.00000E+00
 1.20000E+00 0.00000E+00
 1.40000E+00 0.00000E+00
 1.60000E+00 0.00000E+00
 1.80000E+00 0.00000E+00
 2.00000E+00 0.00000E+00
 2.20000E+00 0.00000E+00
 2.40000E+00 0.00000E+00
 2.60000E+00 0.00000E+00
 2.80000E+00 0.00000E+00
 3.00000E+00 0.00000E+00
 3.20000E+00 0.00000E+00
 3.40000E+00 0.00000E+00
 3.60000E+00 0.00000E+00
 3.80000E+00 0.00000E+00
 4.00000E+00 0.00000E+00
 4.20000E+00 1.47418E+01
 4.40000E+00 3.32337E+01
 4.60000E+00 4.36818E+01
 4.80000E+00 4.92637E+01
 5.00000E+00 5.11499E+01
 5.50000E+00 5.00573E+01
 6.00000E+00 4.81427E+01
 6.50000E+00 4.68921E+01
 7.00000E+00 4.65163E+01
 7.50000E+00 4.70445E+01
 8.00000E+00 4.67376E+01
 8.50000E+00 4.36260E+01
 9.00000E+00 3.79335E+01
 9.50000E+00 3.13934E+01
 1.00000E+01 2.52364E+01
 1.10000E+01 1.63078E+01
 1.20000E+01 1.18869E+01
 1.30000E+01 9.88073E+00
 1.40000E+01 8.87837E+00
 1.50000E+01 8.24581E+00
 1.60000E+01 7.75851E+00
 1.70000E+01 7.39781E+00
 1.80000E+01 7.05234E+00
 1.90000E+01 6.75734E+00
 2.00000E+01 6.49316E+00
 2.10000E+01 6.23683E+00
 2.20000E+01 5.97826E+00
 2.30000E+01 5.73335E+00
 2.40000E+01 5.49979E+00
 2.50000E+01 5.26803E+00
 2.60000E+01 5.06758E+00
 2.70000E+01 4.89976E+00
 2.80000E+01 4.73508E+00
 2.90000E+01 4.58619E+00
 3.00000E+01 4.43974E+00
