# n + 208Pb: Gamma-ray intensity - 208Pb: Level 22 --> Level  5 - gamma energy    0.463320
# E-initial  =   4.383290 E-final=   3.919970
# E-threshold= 4.40455E+00
# # energies = 67
#    E         xs
 1.000E-11 0.00000E+00
 2.530E-08 0.00000E+00
 2.000E-07 0.00000E+00
 1.000E-06 0.00000E+00
 1.000E-03 0.00000E+00
 2.000E-03 0.00000E+00
 5.000E-03 0.00000E+00
 1.000E-02 0.00000E+00
 2.000E-02 0.00000E+00
 5.000E-02 0.00000E+00
 1.000E-01 0.00000E+00
 2.000E-01 0.00000E+00
 3.000E-01 0.00000E+00
 4.000E-01 0.00000E+00
 5.000E-01 0.00000E+00
 7.500E-01 0.00000E+00
 1.000E+00 0.00000E+00
 1.200E+00 0.00000E+00
 1.400E+00 0.00000E+00
 1.600E+00 0.00000E+00
 1.800E+00 0.00000E+00
 2.000E+00 0.00000E+00
 2.200E+00 0.00000E+00
 2.400E+00 0.00000E+00
 2.600E+00 0.00000E+00
 2.800E+00 0.00000E+00
 3.000E+00 0.00000E+00
 3.200E+00 0.00000E+00
 3.400E+00 0.00000E+00
 3.600E+00 0.00000E+00
 3.800E+00 0.00000E+00
 4.000E+00 0.00000E+00
 4.200E+00 0.00000E+00
 4.400E+00 0.00000E+00
 4.600E+00 5.40291E-01
 4.800E+00 8.38373E-01
 5.000E+00 1.03161E+00
 5.500E+00 1.20463E+00
 6.000E+00 1.26535E+00
 6.500E+00 1.33867E+00
 7.000E+00 1.41932E+00
 7.500E+00 1.51563E+00
 8.000E+00 1.60929E+00
 8.500E+00 1.63981E+00
 9.000E+00 1.54171E+00
 9.500E+00 1.34579E+00
 1.000E+01 1.10284E+00
 1.100E+01 6.63641E-01
 1.200E+01 3.92657E-01
 1.300E+01 2.59528E-01
 1.400E+01 1.96979E-01
 1.500E+01 1.67835E-01
 1.600E+01 1.52368E-01
 1.700E+01 1.43150E-01
 1.800E+01 1.33546E-01
 1.900E+01 1.25225E-01
 2.000E+01 1.19768E-01
 2.100E+01 1.13862E-01
 2.200E+01 1.07821E-01
 2.300E+01 1.03243E-01
 2.400E+01 9.77748E-02
 2.500E+01 9.19833E-02
 2.600E+01 8.69410E-02
 2.700E+01 8.25370E-02
 2.800E+01 7.92143E-02
 2.900E+01 7.63171E-02
 3.000E+01 7.34290E-02
