# n + 208Pb: Gamma-ray intensity - 208Pb: Level 19 --> Level  1 - gamma energy    1.614950
# E-initial  =   4.229500 E-final=   2.614550
# E-threshold= 4.25001E+00
# # energies = 67
#    E         xs
 1.000E-11 0.00000E+00
 2.530E-08 0.00000E+00
 2.000E-07 0.00000E+00
 1.000E-06 0.00000E+00
 1.000E-03 0.00000E+00
 2.000E-03 0.00000E+00
 5.000E-03 0.00000E+00
 1.000E-02 0.00000E+00
 2.000E-02 0.00000E+00
 5.000E-02 0.00000E+00
 1.000E-01 0.00000E+00
 2.000E-01 0.00000E+00
 3.000E-01 0.00000E+00
 4.000E-01 0.00000E+00
 5.000E-01 0.00000E+00
 7.500E-01 0.00000E+00
 1.000E+00 0.00000E+00
 1.200E+00 0.00000E+00
 1.400E+00 0.00000E+00
 1.600E+00 0.00000E+00
 1.800E+00 0.00000E+00
 2.000E+00 0.00000E+00
 2.200E+00 0.00000E+00
 2.400E+00 0.00000E+00
 2.600E+00 0.00000E+00
 2.800E+00 0.00000E+00
 3.000E+00 0.00000E+00
 3.200E+00 0.00000E+00
 3.400E+00 0.00000E+00
 3.600E+00 0.00000E+00
 3.800E+00 0.00000E+00
 4.000E+00 0.00000E+00
 4.200E+00 0.00000E+00
 4.400E+00 3.28660E+01
 4.600E+00 4.88485E+01
 4.800E+00 5.44017E+01
 5.000E+00 5.40915E+01
 5.500E+00 4.60553E+01
 6.000E+00 3.91910E+01
 6.500E+00 3.46052E+01
 7.000E+00 3.13360E+01
 7.500E+00 2.91429E+01
 8.000E+00 2.53751E+01
 8.500E+00 2.07493E+01
 9.000E+00 1.63015E+01
 9.500E+00 1.25936E+01
 1.000E+01 9.19925E+00
 1.100E+01 5.17703E+00
 1.200E+01 3.37852E+00
 1.300E+01 2.45804E+00
 1.400E+01 2.02072E+00
 1.500E+01 1.77704E+00
 1.600E+01 1.63648E+00
 1.700E+01 1.57538E+00
 1.800E+01 1.52083E+00
 1.900E+01 1.43686E+00
 2.000E+01 1.42044E+00
 2.100E+01 1.34357E+00
 2.200E+01 1.36434E+00
 2.300E+01 1.28151E+00
 2.400E+01 1.25874E+00
 2.500E+01 1.24354E+00
 2.600E+01 1.14977E+00
 2.700E+01 1.13846E+00
 2.800E+01 1.10091E+00
 2.900E+01 1.10117E+00
 3.000E+01 1.02210E+00
