# n + 208Pb: Gamma-ray intensity - 208Pb: Level 13 --> Level  0 - gamma energy    4.144000
# E-initial  =   4.144000 E-final=   0.000000
# E-threshold= 4.16410E+00
# # energies = 67
#    E         xs
 1.000E-11 0.00000E+00
 2.530E-08 0.00000E+00
 2.000E-07 0.00000E+00
 1.000E-06 0.00000E+00
 1.000E-03 0.00000E+00
 2.000E-03 0.00000E+00
 5.000E-03 0.00000E+00
 1.000E-02 0.00000E+00
 2.000E-02 0.00000E+00
 5.000E-02 0.00000E+00
 1.000E-01 0.00000E+00
 2.000E-01 0.00000E+00
 3.000E-01 0.00000E+00
 4.000E-01 0.00000E+00
 5.000E-01 0.00000E+00
 7.500E-01 0.00000E+00
 1.000E+00 0.00000E+00
 1.200E+00 0.00000E+00
 1.400E+00 0.00000E+00
 1.600E+00 0.00000E+00
 1.800E+00 0.00000E+00
 2.000E+00 0.00000E+00
 2.200E+00 0.00000E+00
 2.400E+00 0.00000E+00
 2.600E+00 0.00000E+00
 2.800E+00 0.00000E+00
 3.000E+00 0.00000E+00
 3.200E+00 0.00000E+00
 3.400E+00 0.00000E+00
 3.600E+00 0.00000E+00
 3.800E+00 0.00000E+00
 4.000E+00 0.00000E+00
 4.200E+00 1.50421E+01
 4.400E+00 5.42350E+01
 4.600E+00 7.15943E+01
 4.800E+00 7.74740E+01
 5.000E+00 7.86133E+01
 5.500E+00 7.69428E+01
 6.000E+00 7.26317E+01
 6.500E+00 6.38292E+01
 7.000E+00 5.44760E+01
 7.500E+00 4.73109E+01
 8.000E+00 3.89026E+01
 8.500E+00 3.00769E+01
 9.000E+00 2.29466E+01
 9.500E+00 1.68914E+01
 1.000E+01 1.24918E+01
 1.100E+01 7.03698E+00
 1.200E+01 4.42787E+00
 1.300E+01 3.15086E+00
 1.400E+01 2.59788E+00
 1.500E+01 2.27611E+00
 1.600E+01 2.05492E+00
 1.700E+01 1.95261E+00
 1.800E+01 1.79766E+00
 1.900E+01 1.67009E+00
 2.000E+01 1.58601E+00
 2.100E+01 1.52084E+00
 2.200E+01 1.39903E+00
 2.300E+01 1.34504E+00
 2.400E+01 1.28742E+00
 2.500E+01 1.15660E+00
 2.600E+01 1.08461E+00
 2.700E+01 1.05203E+00
 2.800E+01 1.02758E+00
 2.900E+01 9.75733E-01
 3.000E+01 9.44649E-01
