# n + 208Pb: Gamma-ray intensity - 208Pb: Level  7 --> Level  3 - gamma energy    0.486080
# E-initial  =   3.961160 E-final=   3.475080
# E-threshold= 3.98037E+00
# # energies = 67
#    E         xs
 1.000E-11 0.00000E+00
 2.530E-08 0.00000E+00
 2.000E-07 0.00000E+00
 1.000E-06 0.00000E+00
 1.000E-03 0.00000E+00
 2.000E-03 0.00000E+00
 5.000E-03 0.00000E+00
 1.000E-02 0.00000E+00
 2.000E-02 0.00000E+00
 5.000E-02 0.00000E+00
 1.000E-01 0.00000E+00
 2.000E-01 0.00000E+00
 3.000E-01 0.00000E+00
 4.000E-01 0.00000E+00
 5.000E-01 0.00000E+00
 7.500E-01 0.00000E+00
 1.000E+00 0.00000E+00
 1.200E+00 0.00000E+00
 1.400E+00 0.00000E+00
 1.600E+00 0.00000E+00
 1.800E+00 0.00000E+00
 2.000E+00 0.00000E+00
 2.200E+00 0.00000E+00
 2.400E+00 0.00000E+00
 2.600E+00 0.00000E+00
 2.800E+00 0.00000E+00
 3.000E+00 0.00000E+00
 3.200E+00 0.00000E+00
 3.400E+00 0.00000E+00
 3.600E+00 0.00000E+00
 3.800E+00 0.00000E+00
 4.000E+00 2.57249E-01
 4.200E+00 8.88929E-01
 4.400E+00 1.19696E+00
 4.600E+00 1.37118E+00
 4.800E+00 1.47871E+00
 5.000E+00 1.54162E+00
 5.500E+00 1.58142E+00
 6.000E+00 1.56455E+00
 6.500E+00 1.53354E+00
 7.000E+00 1.51667E+00
 7.500E+00 1.52255E+00
 8.000E+00 1.49781E+00
 8.500E+00 1.38987E+00
 9.000E+00 1.20746E+00
 9.500E+00 9.95883E-01
 1.000E+01 7.92882E-01
 1.100E+01 4.84748E-01
 1.200E+01 3.21914E-01
 1.300E+01 2.44281E-01
 1.400E+01 2.07355E-01
 1.500E+01 1.87009E-01
 1.600E+01 1.73279E-01
 1.700E+01 1.63641E-01
 1.800E+01 1.54280E-01
 1.900E+01 1.46380E-01
 2.000E+01 1.39725E-01
 2.100E+01 1.33369E-01
 2.200E+01 1.27156E-01
 2.300E+01 1.21504E-01
 2.400E+01 1.16042E-01
 2.500E+01 1.09994E-01
 2.600E+01 1.04574E-01
 2.700E+01 1.00827E-01
 2.800E+01 9.74129E-02
 2.900E+01 9.42768E-02
 3.000E+01 9.11625E-02
