# n + 208Pb: Gamma-ray intensity - 208Pb: Level  3 --> Level  2 - gamma energy    0.277370
# E-initial  =   3.475110 E-final=   3.197740
# E-threshold= 3.49196E+00
# # energies = 67
#    E         xs
 1.000E-11 0.00000E+00
 2.530E-08 0.00000E+00
 2.000E-07 0.00000E+00
 1.000E-06 0.00000E+00
 1.000E-03 0.00000E+00
 2.000E-03 0.00000E+00
 5.000E-03 0.00000E+00
 1.000E-02 0.00000E+00
 2.000E-02 0.00000E+00
 5.000E-02 0.00000E+00
 1.000E-01 0.00000E+00
 2.000E-01 0.00000E+00
 3.000E-01 0.00000E+00
 4.000E-01 0.00000E+00
 5.000E-01 0.00000E+00
 7.500E-01 0.00000E+00
 1.000E+00 0.00000E+00
 1.200E+00 0.00000E+00
 1.400E+00 0.00000E+00
 1.600E+00 0.00000E+00
 1.800E+00 0.00000E+00
 2.000E+00 0.00000E+00
 2.200E+00 0.00000E+00
 2.400E+00 0.00000E+00
 2.600E+00 0.00000E+00
 2.800E+00 0.00000E+00
 3.000E+00 0.00000E+00
 3.200E+00 0.00000E+00
 3.400E+00 0.00000E+00
 3.600E+00 4.64508E+01
 3.800E+00 9.55923E+01
 4.000E+00 1.29111E+02
 4.200E+00 1.40124E+02
 4.400E+00 1.44789E+02
 4.600E+00 1.46799E+02
 4.800E+00 1.47851E+02
 5.000E+00 1.48085E+02
 5.500E+00 1.45571E+02
 6.000E+00 1.41426E+02
 6.500E+00 1.39422E+02
 7.000E+00 1.39652E+02
 7.500E+00 1.41491E+02
 8.000E+00 1.39641E+02
 8.500E+00 1.30334E+02
 9.000E+00 1.14592E+02
 9.500E+00 9.58231E+01
 1.000E+01 7.69258E+01
 1.100E+01 4.68025E+01
 1.200E+01 2.95243E+01
 1.300E+01 2.10837E+01
 1.400E+01 1.69327E+01
 1.500E+01 1.47865E+01
 1.600E+01 1.34485E+01
 1.700E+01 1.26790E+01
 1.800E+01 1.18305E+01
 1.900E+01 1.11654E+01
 2.000E+01 1.05733E+01
 2.100E+01 1.00564E+01
 2.200E+01 9.58877E+00
 2.300E+01 9.16972E+00
 2.400E+01 8.65270E+00
 2.500E+01 8.25865E+00
 2.600E+01 7.79984E+00
 2.700E+01 7.47210E+00
 2.800E+01 7.22019E+00
 2.900E+01 6.89903E+00
 3.000E+01 6.60222E+00
