# n + 208Pb: Gamma-ray intensity - 208Pb: Level  2 --> Level  1 - gamma energy    0.583190
# E-initial  =   3.197740 E-final=   2.614550
# E-threshold= 3.21325E+00
# # energies = 66
#    E         xs
 1.000E-11 0.00000E+00
 2.530E-08 0.00000E+00
 1.000E-06 0.00000E+00
 1.000E-03 0.00000E+00
 2.000E-03 0.00000E+00
 5.000E-03 0.00000E+00
 1.000E-02 0.00000E+00
 2.000E-02 0.00000E+00
 5.000E-02 0.00000E+00
 1.000E-01 0.00000E+00
 2.000E-01 0.00000E+00
 3.000E-01 0.00000E+00
 4.000E-01 0.00000E+00
 5.000E-01 0.00000E+00
 7.500E-01 0.00000E+00
 1.000E+00 0.00000E+00
 1.200E+00 0.00000E+00
 1.400E+00 0.00000E+00
 1.600E+00 0.00000E+00
 1.800E+00 0.00000E+00
 2.000E+00 0.00000E+00
 2.200E+00 0.00000E+00
 2.400E+00 0.00000E+00
 2.600E+00 0.00000E+00
 2.800E+00 0.00000E+00
 3.000E+00 0.00000E+00
 3.200E+00 0.00000E+00
 3.400E+00 1.37810E+02
 3.600E+00 2.62134E+02
 3.800E+00 3.98848E+02
 4.000E+00 5.60855E+02
 4.200E+00 7.33482E+02
 4.400E+00 8.76327E+02
 4.600E+00 9.52200E+02
 4.800E+00 9.93275E+02
 5.000E+00 1.01536E+03
 5.500E+00 1.04018E+03
 6.000E+00 1.06046E+03
 6.500E+00 1.09470E+03
 7.000E+00 1.14488E+03
 7.500E+00 1.20689E+03
 8.000E+00 1.23975E+03
 8.500E+00 1.19806E+03
 9.000E+00 1.07675E+03
 9.500E+00 9.10766E+02
 1.000E+01 7.37030E+02
 1.100E+01 4.57054E+02
 1.200E+01 3.00444E+02
 1.300E+01 2.29990E+02
 1.400E+01 1.97083E+02
 1.500E+01 1.80654E+02
 1.600E+01 1.70125E+02
 1.700E+01 1.63513E+02
 1.800E+01 1.54936E+02
 1.900E+01 1.48193E+02
 2.000E+01 1.41873E+02
 2.100E+01 1.36007E+02
 2.200E+01 1.29875E+02
 2.300E+01 1.25123E+02
 2.400E+01 1.18496E+02
 2.500E+01 1.13245E+02
 2.600E+01 1.07598E+02
 2.700E+01 1.03512E+02
 2.800E+01 1.00205E+02
 2.900E+01 9.54065E+01
 3.000E+01 9.18823E+01
