# n + 208Pb: Gamma-ray intensity - 208Pb: Level 20 --> Level  0 - gamma energy    4.323950
# E-initial  =   4.323950 E-final=   0.000000
# E-threshold= 4.34492E+00
# # energies = 67
#    E         xs
 1.000E-11 0.00000E+00
 2.530E-08 0.00000E+00
 2.000E-07 0.00000E+00
 1.000E-06 0.00000E+00
 1.000E-03 0.00000E+00
 2.000E-03 0.00000E+00
 5.000E-03 0.00000E+00
 1.000E-02 0.00000E+00
 2.000E-02 0.00000E+00
 5.000E-02 0.00000E+00
 1.000E-01 0.00000E+00
 2.000E-01 0.00000E+00
 3.000E-01 0.00000E+00
 4.000E-01 0.00000E+00
 5.000E-01 0.00000E+00
 7.500E-01 0.00000E+00
 1.000E+00 0.00000E+00
 1.200E+00 0.00000E+00
 1.400E+00 0.00000E+00
 1.600E+00 0.00000E+00
 1.800E+00 0.00000E+00
 2.000E+00 0.00000E+00
 2.200E+00 0.00000E+00
 2.400E+00 0.00000E+00
 2.600E+00 0.00000E+00
 2.800E+00 0.00000E+00
 3.000E+00 0.00000E+00
 3.200E+00 0.00000E+00
 3.400E+00 0.00000E+00
 3.600E+00 0.00000E+00
 3.800E+00 0.00000E+00
 4.000E+00 0.00000E+00
 4.200E+00 0.00000E+00
 4.400E+00 3.11531E-02
 4.600E+00 1.21116E-01
 4.800E+00 1.73153E-01
 5.000E+00 2.01526E-01
 5.500E+00 2.48637E-01
 6.000E+00 2.89229E-01
 6.500E+00 3.02785E-01
 7.000E+00 2.96533E-01
 7.500E+00 2.88139E-01
 8.000E+00 2.69999E-01
 8.500E+00 2.37767E-01
 9.000E+00 2.00537E-01
 9.500E+00 1.62189E-01
 1.000E+01 1.29235E-01
 1.100E+01 8.31514E-02
 1.200E+01 6.05930E-02
 1.300E+01 4.99928E-02
 1.400E+01 4.47950E-02
 1.500E+01 4.15003E-02
 1.600E+01 3.89000E-02
 1.700E+01 3.69475E-02
 1.800E+01 3.49165E-02
 1.900E+01 3.31732E-02
 2.000E+01 3.15687E-02
 2.100E+01 3.01494E-02
 2.200E+01 2.87345E-02
 2.300E+01 2.75715E-02
 2.400E+01 2.64996E-02
 2.500E+01 2.52553E-02
 2.600E+01 2.41071E-02
 2.700E+01 2.33173E-02
 2.800E+01 2.26237E-02
 2.900E+01 2.19574E-02
 3.000E+01 2.13254E-02
