# n + 208Pb: Gamma-ray intensity - 208Pb: Level  4 --> Level  1 - gamma energy    1.093890
# E-initial  =   3.708440 E-final=   2.614550
# E-threshold= 3.72643E+00
# # energies = 67
#    E         xs
 1.000E-11 0.00000E+00
 2.530E-08 0.00000E+00
 2.000E-07 0.00000E+00
 1.000E-06 0.00000E+00
 1.000E-03 0.00000E+00
 2.000E-03 0.00000E+00
 5.000E-03 0.00000E+00
 1.000E-02 0.00000E+00
 2.000E-02 0.00000E+00
 5.000E-02 0.00000E+00
 1.000E-01 0.00000E+00
 2.000E-01 0.00000E+00
 3.000E-01 0.00000E+00
 4.000E-01 0.00000E+00
 5.000E-01 0.00000E+00
 7.500E-01 0.00000E+00
 1.000E+00 0.00000E+00
 1.200E+00 0.00000E+00
 1.400E+00 0.00000E+00
 1.600E+00 0.00000E+00
 1.800E+00 0.00000E+00
 2.000E+00 0.00000E+00
 2.200E+00 0.00000E+00
 2.400E+00 0.00000E+00
 2.600E+00 0.00000E+00
 2.800E+00 0.00000E+00
 3.000E+00 0.00000E+00
 3.200E+00 0.00000E+00
 3.400E+00 0.00000E+00
 3.600E+00 0.00000E+00
 3.800E+00 6.36915E-01
 4.000E+00 1.66432E+00
 4.200E+00 2.53483E+00
 4.400E+00 3.03101E+00
 4.600E+00 3.29448E+00
 4.800E+00 3.42749E+00
 5.000E+00 3.50669E+00
 5.500E+00 3.65583E+00
 6.000E+00 3.81990E+00
 6.500E+00 4.06534E+00
 7.000E+00 4.41296E+00
 7.500E+00 4.84526E+00
 8.000E+00 5.23393E+00
 8.500E+00 5.41729E+00
 9.000E+00 5.26722E+00
 9.500E+00 4.80989E+00
 1.000E+01 4.17418E+00
 1.100E+01 2.83915E+00
 1.200E+01 1.86567E+00
 1.300E+01 1.34455E+00
 1.400E+01 1.06941E+00
 1.500E+01 9.34080E-01
 1.600E+01 8.57420E-01
 1.700E+01 8.18462E-01
 1.800E+01 7.73132E-01
 1.900E+01 7.41631E-01
 2.000E+01 7.08857E-01
 2.100E+01 6.79846E-01
 2.200E+01 6.46502E-01
 2.300E+01 6.25337E-01
 2.400E+01 5.92452E-01
 2.500E+01 5.69582E-01
 2.600E+01 5.40352E-01
 2.700E+01 5.20366E-01
 2.800E+01 5.06208E-01
 2.900E+01 4.79634E-01
 3.000E+01 4.63755E-01
