# n + 208Pb: Gamma-ray intensity - 208Pb: Level  3 --> Level  1 - gamma energy    0.860560
# E-initial  =   3.475080 E-final=   2.614520
# E-threshold= 3.49193E+00
# # energies = 67
#    E         xs
 1.000E-11 0.00000E+00
 2.530E-08 0.00000E+00
 2.000E-07 0.00000E+00
 1.000E-06 0.00000E+00
 1.000E-03 0.00000E+00
 2.000E-03 0.00000E+00
 5.000E-03 0.00000E+00
 1.000E-02 0.00000E+00
 2.000E-02 0.00000E+00
 5.000E-02 0.00000E+00
 1.000E-01 0.00000E+00
 2.000E-01 0.00000E+00
 3.000E-01 0.00000E+00
 4.000E-01 0.00000E+00
 5.000E-01 0.00000E+00
 7.500E-01 0.00000E+00
 1.000E+00 0.00000E+00
 1.200E+00 0.00000E+00
 1.400E+00 0.00000E+00
 1.600E+00 0.00000E+00
 1.800E+00 0.00000E+00
 2.000E+00 0.00000E+00
 2.200E+00 0.00000E+00
 2.400E+00 0.00000E+00
 2.600E+00 0.00000E+00
 2.800E+00 0.00000E+00
 3.000E+00 0.00000E+00
 3.200E+00 0.00000E+00
 3.400E+00 0.00000E+00
 3.600E+00 4.81452E+01
 3.800E+00 9.86179E+01
 4.000E+00 1.35477E+02
 4.200E+00 1.53048E+02
 4.400E+00 1.63845E+02
 4.600E+00 1.72891E+02
 4.800E+00 1.80722E+02
 5.000E+00 1.85696E+02
 5.500E+00 1.82942E+02
 6.000E+00 1.71665E+02
 6.500E+00 1.62972E+02
 7.000E+00 1.57536E+02
 7.500E+00 1.54154E+02
 8.000E+00 1.44768E+02
 8.500E+00 1.26889E+02
 9.000E+00 1.05416E+02
 9.500E+00 8.31531E+01
 1.000E+01 6.36915E+01
 1.100E+01 3.61508E+01
 1.200E+01 2.24455E+01
 1.300E+01 1.60106E+01
 1.400E+01 1.30753E+01
 1.500E+01 1.15152E+01
 1.600E+01 1.04889E+01
 1.700E+01 9.83079E+00
 1.800E+01 9.13790E+00
 1.900E+01 8.56911E+00
 2.000E+01 8.10793E+00
 2.100E+01 7.68442E+00
 2.200E+01 7.24851E+00
 2.300E+01 6.89102E+00
 2.400E+01 6.53665E+00
 2.500E+01 6.07478E+00
 2.600E+01 5.71362E+00
 2.700E+01 5.48543E+00
 2.800E+01 5.28518E+00
 2.900E+01 5.09785E+00
 3.000E+01 4.91630E+00
