# n + 208Pb: Gamma-ray intensity - 208Pb: Level 19 --> Level  2 - gamma energy    1.098850
# E-initial  =   4.296560 E-final=   3.197710
# E-threshold= 4.31740E+00
# # energies = 67
#    E         xs
 1.000E-11 0.00000E+00
 2.530E-08 0.00000E+00
 2.000E-07 0.00000E+00
 1.000E-06 0.00000E+00
 1.000E-03 0.00000E+00
 2.000E-03 0.00000E+00
 5.000E-03 0.00000E+00
 1.000E-02 0.00000E+00
 2.000E-02 0.00000E+00
 5.000E-02 0.00000E+00
 1.000E-01 0.00000E+00
 2.000E-01 0.00000E+00
 3.000E-01 0.00000E+00
 4.000E-01 0.00000E+00
 5.000E-01 0.00000E+00
 7.500E-01 0.00000E+00
 1.000E+00 0.00000E+00
 1.200E+00 0.00000E+00
 1.400E+00 0.00000E+00
 1.600E+00 0.00000E+00
 1.800E+00 0.00000E+00
 2.000E+00 0.00000E+00
 2.200E+00 0.00000E+00
 2.400E+00 0.00000E+00
 2.600E+00 0.00000E+00
 2.800E+00 0.00000E+00
 3.000E+00 0.00000E+00
 3.200E+00 0.00000E+00
 3.400E+00 0.00000E+00
 3.600E+00 0.00000E+00
 3.800E+00 0.00000E+00
 4.000E+00 0.00000E+00
 4.200E+00 0.00000E+00
 4.400E+00 1.08787E+00
 4.600E+00 2.07283E+00
 4.800E+00 2.74735E+00
 5.000E+00 3.10754E+00
 5.500E+00 3.19561E+00
 6.000E+00 3.01190E+00
 6.500E+00 2.86014E+00
 7.000E+00 2.75122E+00
 7.500E+00 2.70262E+00
 8.000E+00 2.63301E+00
 8.500E+00 2.43510E+00
 9.000E+00 2.10367E+00
 9.500E+00 1.72314E+00
 1.000E+01 1.35738E+00
 1.100E+01 8.05016E-01
 1.200E+01 5.14945E-01
 1.300E+01 3.77293E-01
 1.400E+01 3.12673E-01
 1.500E+01 2.78543E-01
 1.600E+01 2.57279E-01
 1.700E+01 2.42877E-01
 1.800E+01 2.29173E-01
 1.900E+01 2.17485E-01
 2.000E+01 2.08210E-01
 2.100E+01 1.98916E-01
 2.200E+01 1.90038E-01
 2.300E+01 1.81744E-01
 2.400E+01 1.73481E-01
 2.500E+01 1.65246E-01
 2.600E+01 1.57339E-01
 2.700E+01 1.51948E-01
 2.800E+01 1.46767E-01
 2.900E+01 1.42098E-01
 3.000E+01 1.37362E-01
