# n + 208Pb: Gamma-ray intensity - 208Pb: Level  6 --> Level  4 - gamma energy    0.238130
# E-initial  =   3.946580 E-final=   3.708450
# E-threshold= 3.96572E+00
# # energies = 67
#    E         xs
 1.000E-11 0.00000E+00
 2.530E-08 0.00000E+00
 2.000E-07 0.00000E+00
 1.000E-06 0.00000E+00
 1.000E-03 0.00000E+00
 2.000E-03 0.00000E+00
 5.000E-03 0.00000E+00
 1.000E-02 0.00000E+00
 2.000E-02 0.00000E+00
 5.000E-02 0.00000E+00
 1.000E-01 0.00000E+00
 2.000E-01 0.00000E+00
 3.000E-01 0.00000E+00
 4.000E-01 0.00000E+00
 5.000E-01 0.00000E+00
 7.500E-01 0.00000E+00
 1.000E+00 0.00000E+00
 1.200E+00 0.00000E+00
 1.400E+00 0.00000E+00
 1.600E+00 0.00000E+00
 1.800E+00 0.00000E+00
 2.000E+00 0.00000E+00
 2.200E+00 0.00000E+00
 2.400E+00 0.00000E+00
 2.600E+00 0.00000E+00
 2.800E+00 0.00000E+00
 3.000E+00 0.00000E+00
 3.200E+00 0.00000E+00
 3.400E+00 0.00000E+00
 3.600E+00 0.00000E+00
 3.800E+00 0.00000E+00
 4.000E+00 4.36898E+00
 4.200E+00 1.24923E+01
 4.400E+00 1.61977E+01
 4.600E+00 1.72657E+01
 4.800E+00 1.72231E+01
 5.000E+00 1.66656E+01
 5.500E+00 1.52067E+01
 6.000E+00 1.39802E+01
 6.500E+00 1.29824E+01
 7.000E+00 1.23479E+01
 7.500E+00 1.20058E+01
 8.000E+00 1.12295E+01
 8.500E+00 9.77388E+00
 9.000E+00 8.05176E+00
 9.500E+00 6.28079E+00
 1.000E+01 4.75307E+00
 1.100E+01 2.61889E+00
 1.200E+01 1.57482E+00
 1.300E+01 1.08847E+00
 1.400E+01 8.69489E-01
 1.500E+01 7.55512E-01
 1.600E+01 6.82283E-01
 1.700E+01 6.36320E-01
 1.800E+01 5.87351E-01
 1.900E+01 5.47427E-01
 2.000E+01 5.14951E-01
 2.100E+01 4.85667E-01
 2.200E+01 4.55927E-01
 2.300E+01 4.31831E-01
 2.400E+01 4.07794E-01
 2.500E+01 3.77026E-01
 2.600E+01 3.51496E-01
 2.700E+01 3.36504E-01
 2.800E+01 3.23462E-01
 2.900E+01 3.11713E-01
 3.000E+01 3.00039E-01
