# n + 208Pb: Gamma-ray intensity - 207Pb: Level  2 --> Level  0 - gamma energy    0.897698
# E-initial  =   0.897698 E-final=   0.000000
# E-threshold= 8.30566E+00
# # energies =    67
#    E           xs
 1.00000E-11 0.00000E+00
 2.53000E-08 0.00000E+00
 2.00000E-07 0.00000E+00
 1.00000E-06 0.00000E+00
 1.00000E-03 0.00000E+00
 2.00000E-03 0.00000E+00
 5.00000E-03 0.00000E+00
 1.00000E-02 0.00000E+00
 2.00000E-02 0.00000E+00
 5.00000E-02 0.00000E+00
 1.00000E-01 0.00000E+00
 2.00000E-01 0.00000E+00
 3.00000E-01 0.00000E+00
 4.00000E-01 0.00000E+00
 5.00000E-01 0.00000E+00
 7.50000E-01 0.00000E+00
 1.00000E+00 0.00000E+00
 1.20000E+00 0.00000E+00
 1.40000E+00 0.00000E+00
 1.60000E+00 0.00000E+00
 1.80000E+00 0.00000E+00
 2.00000E+00 0.00000E+00
 2.20000E+00 0.00000E+00
 2.40000E+00 0.00000E+00
 2.60000E+00 0.00000E+00
 2.80000E+00 0.00000E+00
 3.00000E+00 0.00000E+00
 3.20000E+00 0.00000E+00
 3.40000E+00 0.00000E+00
 3.60000E+00 0.00000E+00
 3.80000E+00 0.00000E+00
 4.00000E+00 0.00000E+00
 4.20000E+00 0.00000E+00
 4.40000E+00 0.00000E+00
 4.60000E+00 0.00000E+00
 4.80000E+00 0.00000E+00
 5.00000E+00 0.00000E+00
 5.50000E+00 0.00000E+00
 6.00000E+00 0.00000E+00
 6.50000E+00 0.00000E+00
 7.00000E+00 0.00000E+00
 7.50000E+00 0.00000E+00
 8.00000E+00 0.00000E+00
 8.50000E+00 1.27945E+00
 9.00000E+00 2.39840E+01
 9.50000E+00 7.02088E+01
 1.00000E+01 1.20824E+02
 1.10000E+01 2.04447E+02
 1.20000E+01 2.35383E+02
 1.30000E+01 2.25390E+02
 1.40000E+01 2.02621E+02
 1.50000E+01 1.81692E+02
 1.60000E+01 1.58812E+02
 1.70000E+01 1.33366E+02
 1.80000E+01 1.09567E+02
 1.90000E+01 8.81941E+01
 2.00000E+01 7.18535E+01
 2.10000E+01 5.83954E+01
 2.20000E+01 4.97108E+01
 2.30000E+01 4.34243E+01
 2.40000E+01 3.91683E+01
 2.50000E+01 3.60894E+01
 2.60000E+01 3.40254E+01
 2.70000E+01 3.22354E+01
 2.80000E+01 3.10862E+01
 2.90000E+01 2.98069E+01
 3.00000E+01 2.88334E+01
