# n + 208Pb: Gamma-ray intensity - 208Pb: Level  3 --> Level  2 - gamma energy    0.277370
# E-initial  =   3.475110 E-final=   3.197740
# E-threshold= 3.49196E+00
# # energies = 67
#    E         xs
 1.000E-11 0.00000E+00
 2.530E-08 0.00000E+00
 2.000E-07 0.00000E+00
 1.000E-06 0.00000E+00
 1.000E-03 0.00000E+00
 2.000E-03 0.00000E+00
 5.000E-03 0.00000E+00
 1.000E-02 0.00000E+00
 2.000E-02 0.00000E+00
 5.000E-02 0.00000E+00
 1.000E-01 0.00000E+00
 2.000E-01 0.00000E+00
 3.000E-01 0.00000E+00
 4.000E-01 0.00000E+00
 5.000E-01 0.00000E+00
 7.500E-01 0.00000E+00
 1.000E+00 0.00000E+00
 1.200E+00 0.00000E+00
 1.400E+00 0.00000E+00
 1.600E+00 0.00000E+00
 1.800E+00 0.00000E+00
 2.000E+00 0.00000E+00
 2.200E+00 0.00000E+00
 2.400E+00 0.00000E+00
 2.600E+00 0.00000E+00
 2.800E+00 0.00000E+00
 3.000E+00 0.00000E+00
 3.200E+00 0.00000E+00
 3.400E+00 0.00000E+00
 3.600E+00 2.42079E+01
 3.800E+00 4.96207E+01
 4.000E+00 6.67533E+01
 4.200E+00 7.21889E+01
 4.400E+00 7.45621E+01
 4.600E+00 7.60137E+01
 4.800E+00 7.72002E+01
 5.000E+00 7.80118E+01
 5.500E+00 7.80861E+01
 6.000E+00 7.66543E+01
 6.500E+00 7.58369E+01
 7.000E+00 7.58257E+01
 7.500E+00 7.64440E+01
 8.000E+00 7.44535E+01
 8.500E+00 6.83051E+01
 9.000E+00 5.90046E+01
 9.500E+00 4.87312E+01
 1.000E+01 3.86857E+01
 1.100E+01 2.32834E+01
 1.200E+01 1.48974E+01
 1.300E+01 1.08186E+01
 1.400E+01 8.84368E+00
 1.500E+01 7.78953E+00
 1.600E+01 7.13252E+00
 1.700E+01 6.73293E+00
 1.800E+01 6.28229E+00
 1.900E+01 5.92313E+00
 2.000E+01 5.62687E+00
 2.100E+01 5.33411E+00
 2.200E+01 5.08969E+00
 2.300E+01 4.84288E+00
 2.400E+01 4.58201E+00
 2.500E+01 4.35995E+00
 2.600E+01 4.11344E+00
 2.700E+01 3.95599E+00
 2.800E+01 3.79784E+00
 2.900E+01 3.66300E+00
 3.000E+01 3.49595E+00
