# n + 208Pb: Gamma-ray intensity - 208Pb: Level  3 --> Level  1 - gamma energy    0.860560
# E-initial  =   3.475110 E-final=   2.614550
# E-threshold= 3.49196E+00
# # energies = 66
#    E         xs
 1.000E-11 0.00000E+00
 2.530E-08 0.00000E+00
 1.000E-06 0.00000E+00
 1.000E-03 0.00000E+00
 2.000E-03 0.00000E+00
 5.000E-03 0.00000E+00
 1.000E-02 0.00000E+00
 2.000E-02 0.00000E+00
 5.000E-02 0.00000E+00
 1.000E-01 0.00000E+00
 2.000E-01 0.00000E+00
 3.000E-01 0.00000E+00
 4.000E-01 0.00000E+00
 5.000E-01 0.00000E+00
 7.500E-01 0.00000E+00
 1.000E+00 0.00000E+00
 1.200E+00 0.00000E+00
 1.400E+00 0.00000E+00
 1.600E+00 0.00000E+00
 1.800E+00 0.00000E+00
 2.000E+00 0.00000E+00
 2.200E+00 0.00000E+00
 2.400E+00 0.00000E+00
 2.600E+00 0.00000E+00
 2.800E+00 0.00000E+00
 3.000E+00 0.00000E+00
 3.200E+00 0.00000E+00
 3.400E+00 0.00000E+00
 3.600E+00 4.04316E+01
 3.800E+00 8.32059E+01
 4.000E+00 1.12383E+02
 4.200E+00 1.21966E+02
 4.400E+00 1.25740E+02
 4.600E+00 1.26877E+02
 4.800E+00 1.27250E+02
 5.000E+00 1.27118E+02
 5.500E+00 1.25134E+02
 6.000E+00 1.22449E+02
 6.500E+00 1.21355E+02
 7.000E+00 1.21803E+02
 7.500E+00 1.23246E+02
 8.000E+00 1.19950E+02
 8.500E+00 1.08485E+02
 9.000E+00 9.14194E+01
 9.500E+00 7.32136E+01
 1.000E+01 5.64313E+01
 1.100E+01 3.26809E+01
 1.200E+01 2.10674E+01
 1.300E+01 1.60021E+01
 1.400E+01 1.36861E+01
 1.500E+01 1.24417E+01
 1.600E+01 1.15968E+01
 1.700E+01 1.10487E+01
 1.800E+01 1.03816E+01
 1.900E+01 9.82457E+00
 2.000E+01 9.35501E+00
 2.100E+01 8.90425E+00
 2.200E+01 8.46130E+00
 2.300E+01 8.07548E+00
 2.400E+01 7.62483E+00
 2.500E+01 7.25467E+00
 2.600E+01 6.86347E+00
 2.700E+01 6.57600E+00
 2.800E+01 6.33597E+00
 2.900E+01 6.06222E+00
 3.000E+01 5.78491E+00
