# n + 208Pb: Gamma-ray intensity - 208Pb: Level 28 --> Level  2 - gamma energy    1.500612
# E-initial  =   4.698323 E-final=   3.197711
# E-threshold= 4.72111E+00
# # energies =    67
#    E           xs
 1.00000E-11 0.00000E+00
 2.53000E-08 0.00000E+00
 2.00000E-07 0.00000E+00
 1.00000E-06 0.00000E+00
 1.00000E-03 0.00000E+00
 2.00000E-03 0.00000E+00
 5.00000E-03 0.00000E+00
 1.00000E-02 0.00000E+00
 2.00000E-02 0.00000E+00
 5.00000E-02 0.00000E+00
 1.00000E-01 0.00000E+00
 2.00000E-01 0.00000E+00
 3.00000E-01 0.00000E+00
 4.00000E-01 0.00000E+00
 5.00000E-01 0.00000E+00
 7.50000E-01 0.00000E+00
 1.00000E+00 0.00000E+00
 1.20000E+00 0.00000E+00
 1.40000E+00 0.00000E+00
 1.60000E+00 0.00000E+00
 1.80000E+00 0.00000E+00
 2.00000E+00 0.00000E+00
 2.20000E+00 0.00000E+00
 2.40000E+00 0.00000E+00
 2.60000E+00 0.00000E+00
 2.80000E+00 0.00000E+00
 3.00000E+00 0.00000E+00
 3.20000E+00 0.00000E+00
 3.40000E+00 0.00000E+00
 3.60000E+00 0.00000E+00
 3.80000E+00 0.00000E+00
 4.00000E+00 0.00000E+00
 4.20000E+00 0.00000E+00
 4.40000E+00 0.00000E+00
 4.60000E+00 0.00000E+00
 4.80000E+00 2.33580E+00
 5.00000E+00 4.92750E+00
 5.50000E+00 6.78784E+00
 6.00000E+00 6.00452E+00
 6.50000E+00 5.31295E+00
 7.00000E+00 4.80638E+00
 7.50000E+00 4.37664E+00
 8.00000E+00 3.74876E+00
 8.50000E+00 2.97214E+00
 9.00000E+00 2.28899E+00
 9.50000E+00 1.69766E+00
 1.00000E+01 1.25029E+00
 1.10000E+01 7.20012E-01
 1.20000E+01 4.90508E-01
 1.30000E+01 3.89482E-01
 1.40000E+01 3.45256E-01
 1.50000E+01 3.18649E-01
 1.60000E+01 2.98011E-01
 1.70000E+01 2.87395E-01
 1.80000E+01 2.73682E-01
 1.90000E+01 2.62540E-01
 2.00000E+01 2.55238E-01
 2.10000E+01 2.48459E-01
 2.20000E+01 2.37920E-01
 2.30000E+01 2.30899E-01
 2.40000E+01 2.22969E-01
 2.50000E+01 2.13275E-01
 2.60000E+01 2.06986E-01
 2.70000E+01 2.02423E-01
 2.80000E+01 1.95968E-01
 2.90000E+01 1.89814E-01
 3.00000E+01 1.85226E-01
