# n + 208Pb: Gamma-ray intensity - 208Pb: Level  2 --> Level  1 - gamma energy    0.583190
# E-initial  =   3.197740 E-final=   2.614550
# E-threshold= 3.21325E+00
# # energies = 67
#    E         xs
 1.000E-11 0.00000E+00
 2.530E-08 0.00000E+00
 2.000E-07 0.00000E+00
 1.000E-06 0.00000E+00
 1.000E-03 0.00000E+00
 2.000E-03 0.00000E+00
 5.000E-03 0.00000E+00
 1.000E-02 0.00000E+00
 2.000E-02 0.00000E+00
 5.000E-02 0.00000E+00
 1.000E-01 0.00000E+00
 2.000E-01 0.00000E+00
 3.000E-01 0.00000E+00
 4.000E-01 0.00000E+00
 5.000E-01 0.00000E+00
 7.500E-01 0.00000E+00
 1.000E+00 0.00000E+00
 1.200E+00 0.00000E+00
 1.400E+00 0.00000E+00
 1.600E+00 0.00000E+00
 1.800E+00 0.00000E+00
 2.000E+00 0.00000E+00
 2.200E+00 0.00000E+00
 2.400E+00 0.00000E+00
 2.600E+00 0.00000E+00
 2.800E+00 0.00000E+00
 3.000E+00 0.00000E+00
 3.200E+00 0.00000E+00
 3.400E+00 1.37656E+02
 3.600E+00 2.61931E+02
 3.800E+00 3.98589E+02
 4.000E+00 5.60533E+02
 4.200E+00 7.33145E+02
 4.400E+00 8.69101E+02
 4.600E+00 9.27710E+02
 4.800E+00 9.54658E+02
 5.000E+00 9.71432E+02
 5.500E+00 1.01161E+03
 6.000E+00 1.05883E+03
 6.500E+00 1.11462E+03
 7.000E+00 1.17910E+03
 7.500E+00 1.24845E+03
 8.000E+00 1.28380E+03
 8.500E+00 1.23710E+03
 9.000E+00 1.11123E+03
 9.500E+00 9.36868E+02
 1.000E+01 7.54847E+02
 1.100E+01 4.70754E+02
 1.200E+01 3.14553E+02
 1.300E+01 2.44528E+02
 1.400E+01 2.11011E+02
 1.500E+01 1.94046E+02
 1.600E+01 1.82571E+02
 1.700E+01 1.75965E+02
 1.800E+01 1.66923E+02
 1.900E+01 1.59807E+02
 2.000E+01 1.52681E+02
 2.100E+01 1.46165E+02
 2.200E+01 1.39739E+02
 2.300E+01 1.34463E+02
 2.400E+01 1.27506E+02
 2.500E+01 1.21819E+02
 2.600E+01 1.15751E+02
 2.700E+01 1.11210E+02
 2.800E+01 1.07611E+02
 2.900E+01 1.02476E+02
 3.000E+01 9.88439E+01
