# n + 208Pb: Gamma-ray intensity - 209Pb: Level  9 --> Level  1 - gamma energy    1.712200
# E-initial  =   2.491000 E-final=   0.778800
# E-threshold= 0.00000E+00
# # energies = 66
#    E         xs
 1.000E-11 0.00000E+00
 2.530E-08 0.00000E+00
 1.000E-06 0.00000E+00
 1.000E-03 0.00000E+00
 2.000E-03 0.00000E+00
 5.000E-03 0.00000E+00
 1.000E-02 0.00000E+00
 2.000E-02 0.00000E+00
 5.000E-02 0.00000E+00
 1.000E-01 0.00000E+00
 2.000E-01 0.00000E+00
 3.000E-01 0.00000E+00
 4.000E-01 0.00000E+00
 5.000E-01 0.00000E+00
 7.500E-01 0.00000E+00
 1.000E+00 1.43011E-04
 1.200E+00 1.57978E-04
 1.400E+00 1.75672E-04
 1.600E+00 1.94473E-04
 1.800E+00 2.17177E-04
 2.000E+00 2.43596E-04
 2.200E+00 2.74270E-04
 2.400E+00 3.10412E-04
 2.600E+00 3.72460E-04
 2.800E+00 2.87155E-04
 3.000E+00 2.82814E-04
 3.200E+00 3.10313E-04
 3.400E+00 3.06791E-04
 3.600E+00 3.16709E-04
 3.800E+00 3.30611E-04
 4.000E+00 3.49759E-04
 4.200E+00 3.16948E-04
 4.400E+00 2.70471E-04
 4.600E+00 2.38252E-04
 4.800E+00 2.12157E-04
 5.000E+00 1.93169E-04
 5.500E+00 1.56773E-04
 6.000E+00 1.30797E-04
 6.500E+00 1.13025E-04
 7.000E+00 1.07571E-04
 7.500E+00 1.12009E-04
 8.000E+00 1.32751E-04
 8.500E+00 1.75534E-04
 9.000E+00 2.50149E-04
 9.500E+00 3.84896E-04
 1.000E+01 5.89563E-04
 1.100E+01 8.68576E-04
 1.200E+01 6.70314E-04
 1.300E+01 4.49610E-04
 1.400E+01 3.03855E-04
 1.500E+01 2.35948E-04
 1.600E+01 1.97503E-04
 1.700E+01 1.71462E-04
 1.800E+01 1.52811E-04
 1.900E+01 1.32091E-04
 2.000E+01 1.19279E-04
 2.100E+01 1.14102E-04
 2.200E+01 1.09764E-04
 2.300E+01 1.08290E-04
 2.400E+01 1.05396E-04
 2.500E+01 1.04700E-04
 2.600E+01 1.03874E-04
 2.700E+01 1.02085E-04
 2.800E+01 9.97112E-05
 2.900E+01 9.50382E-05
 3.000E+01 9.22102E-05
