# n + 208Pb: Gamma-ray intensity - 208Pb: Level 19 --> Level  1 - gamma energy    1.614950
# E-initial  =   4.229500 E-final=   2.614550
# E-threshold= 4.25001E+00
# # energies = 66
#    E         xs
 1.000E-11 0.00000E+00
 2.530E-08 0.00000E+00
 1.000E-06 0.00000E+00
 1.000E-03 0.00000E+00
 2.000E-03 0.00000E+00
 5.000E-03 0.00000E+00
 1.000E-02 0.00000E+00
 2.000E-02 0.00000E+00
 5.000E-02 0.00000E+00
 1.000E-01 0.00000E+00
 2.000E-01 0.00000E+00
 3.000E-01 0.00000E+00
 4.000E-01 0.00000E+00
 5.000E-01 0.00000E+00
 7.500E-01 0.00000E+00
 1.000E+00 0.00000E+00
 1.200E+00 0.00000E+00
 1.400E+00 0.00000E+00
 1.600E+00 0.00000E+00
 1.800E+00 0.00000E+00
 2.000E+00 0.00000E+00
 2.200E+00 0.00000E+00
 2.400E+00 0.00000E+00
 2.600E+00 0.00000E+00
 2.800E+00 0.00000E+00
 3.000E+00 0.00000E+00
 3.200E+00 0.00000E+00
 3.400E+00 0.00000E+00
 3.600E+00 0.00000E+00
 3.800E+00 0.00000E+00
 4.000E+00 0.00000E+00
 4.200E+00 0.00000E+00
 4.400E+00 3.25937E+01
 4.600E+00 4.73707E+01
 4.800E+00 5.12204E+01
 5.000E+00 4.92938E+01
 5.500E+00 3.89966E+01
 6.000E+00 3.18947E+01
 6.500E+00 2.79370E+01
 7.000E+00 2.56027E+01
 7.500E+00 2.42059E+01
 8.000E+00 2.08306E+01
 8.500E+00 1.64842E+01
 9.000E+00 1.24801E+01
 9.500E+00 9.32327E+00
 1.000E+01 6.64723E+00
 1.100E+01 3.65897E+00
 1.200E+01 2.45655E+00
 1.300E+01 1.88653E+00
 1.400E+01 1.63706E+00
 1.500E+01 1.48860E+00
 1.600E+01 1.40038E+00
 1.700E+01 1.35559E+00
 1.800E+01 1.32458E+00
 1.900E+01 1.24974E+00
 2.000E+01 1.23930E+00
 2.100E+01 1.17124E+00
 2.200E+01 1.15743E+00
 2.300E+01 1.08535E+00
 2.400E+01 1.06233E+00
 2.500E+01 1.04140E+00
 2.600E+01 9.67726E-01
 2.700E+01 9.47929E-01
 2.800E+01 9.33411E-01
 2.900E+01 9.10072E-01
 3.000E+01 8.46464E-01
