# n + 208Pb: Gamma-ray intensity - 208Pb: Level  3 --> Level  1 - gamma energy    0.860556
# E-initial  =   3.475078 E-final=   2.614522
# E-threshold= 3.49193E+00
# # energies =    67
#    E           xs
 1.00000E-11 0.00000E+00
 2.53000E-08 0.00000E+00
 2.00000E-07 0.00000E+00
 1.00000E-06 0.00000E+00
 1.00000E-03 0.00000E+00
 2.00000E-03 0.00000E+00
 5.00000E-03 0.00000E+00
 1.00000E-02 0.00000E+00
 2.00000E-02 0.00000E+00
 5.00000E-02 0.00000E+00
 1.00000E-01 0.00000E+00
 2.00000E-01 0.00000E+00
 3.00000E-01 0.00000E+00
 4.00000E-01 0.00000E+00
 5.00000E-01 0.00000E+00
 7.50000E-01 0.00000E+00
 1.00000E+00 0.00000E+00
 1.20000E+00 0.00000E+00
 1.40000E+00 0.00000E+00
 1.60000E+00 0.00000E+00
 1.80000E+00 0.00000E+00
 2.00000E+00 0.00000E+00
 2.20000E+00 0.00000E+00
 2.40000E+00 0.00000E+00
 2.60000E+00 0.00000E+00
 2.80000E+00 0.00000E+00
 3.00000E+00 0.00000E+00
 3.20000E+00 0.00000E+00
 3.40000E+00 0.00000E+00
 3.60000E+00 4.81549E+01
 3.80000E+00 9.86383E+01
 4.00000E+00 1.35306E+02
 4.20000E+00 1.52629E+02
 4.40000E+00 1.63329E+02
 4.60000E+00 1.72312E+02
 4.80000E+00 1.80107E+02
 5.00000E+00 1.85071E+02
 5.50000E+00 1.81849E+02
 6.00000E+00 1.70518E+02
 6.50000E+00 1.62034E+02
 7.00000E+00 1.56776E+02
 7.50000E+00 1.53443E+02
 8.00000E+00 1.42968E+02
 8.50000E+00 1.22694E+02
 9.00000E+00 9.89802E+01
 9.50000E+00 7.53791E+01
 1.00000E+01 5.56223E+01
 1.10000E+01 2.94522E+01
 1.20000E+01 1.75692E+01
 1.30000E+01 1.24313E+01
 1.40000E+01 1.01981E+01
 1.50000E+01 9.02320E+00
 1.60000E+01 8.21296E+00
 1.70000E+01 7.73390E+00
 1.80000E+01 7.15802E+00
 1.90000E+01 6.69660E+00
 2.00000E+01 6.31462E+00
 2.10000E+01 5.98538E+00
 2.20000E+01 5.62379E+00
 2.30000E+01 5.33189E+00
 2.40000E+01 5.04417E+00
 2.50000E+01 4.67069E+00
 2.60000E+01 4.42083E+00
 2.70000E+01 4.23923E+00
 2.80000E+01 4.05260E+00
 2.90000E+01 3.88776E+00
 3.00000E+01 3.73165E+00
