# n + 208Pb: Gamma-ray intensity - 208Pb: Level  7 --> Level  2 - gamma energy    0.763220
# E-initial  =   3.960960 E-final=   3.197740
# E-threshold= 3.98017E+00
# # energies = 67
#    E         xs
 1.000E-11 0.00000E+00
 2.530E-08 0.00000E+00
 2.000E-07 0.00000E+00
 1.000E-06 0.00000E+00
 1.000E-03 0.00000E+00
 2.000E-03 0.00000E+00
 5.000E-03 0.00000E+00
 1.000E-02 0.00000E+00
 2.000E-02 0.00000E+00
 5.000E-02 0.00000E+00
 1.000E-01 0.00000E+00
 2.000E-01 0.00000E+00
 3.000E-01 0.00000E+00
 4.000E-01 0.00000E+00
 5.000E-01 0.00000E+00
 7.500E-01 0.00000E+00
 1.000E+00 0.00000E+00
 1.200E+00 0.00000E+00
 1.400E+00 0.00000E+00
 1.600E+00 0.00000E+00
 1.800E+00 0.00000E+00
 2.000E+00 0.00000E+00
 2.200E+00 0.00000E+00
 2.400E+00 0.00000E+00
 2.600E+00 0.00000E+00
 2.800E+00 0.00000E+00
 3.000E+00 0.00000E+00
 3.200E+00 0.00000E+00
 3.400E+00 0.00000E+00
 3.600E+00 0.00000E+00
 3.800E+00 0.00000E+00
 4.000E+00 8.22605E+00
 4.200E+00 2.63738E+01
 4.400E+00 3.39781E+01
 4.600E+00 3.72068E+01
 4.800E+00 3.78956E+01
 5.000E+00 3.75175E+01
 5.500E+00 3.55326E+01
 6.000E+00 3.36480E+01
 6.500E+00 3.24425E+01
 7.000E+00 3.21761E+01
 7.500E+00 3.27408E+01
 8.000E+00 3.29791E+01
 8.500E+00 3.15100E+01
 9.000E+00 2.79773E+01
 9.500E+00 2.34567E+01
 1.000E+01 1.88301E+01
 1.100E+01 1.13839E+01
 1.200E+01 7.16418E+00
 1.300E+01 5.11492E+00
 1.400E+01 4.11461E+00
 1.500E+01 3.60832E+00
 1.600E+01 3.29357E+00
 1.700E+01 3.11406E+00
 1.800E+01 2.92500E+00
 1.900E+01 2.77484E+00
 2.000E+01 2.63887E+00
 2.100E+01 2.52771E+00
 2.200E+01 2.43344E+00
 2.300E+01 2.33551E+00
 2.400E+01 2.22221E+00
 2.500E+01 2.13547E+00
 2.600E+01 2.03255E+00
 2.700E+01 1.95632E+00
 2.800E+01 1.88951E+00
 2.900E+01 1.81961E+00
 3.000E+01 1.74963E+00
