# n + 208Pb: Gamma-ray intensity - 208Pb: Level 23 --> Level  4 - gamma energy    0.715200
# E-initial  =   4.423650 E-final=   3.708450
# E-threshold= 4.44510E+00
# # energies = 67
#    E         xs
 1.000E-11 0.00000E+00
 2.530E-08 0.00000E+00
 2.000E-07 0.00000E+00
 1.000E-06 0.00000E+00
 1.000E-03 0.00000E+00
 2.000E-03 0.00000E+00
 5.000E-03 0.00000E+00
 1.000E-02 0.00000E+00
 2.000E-02 0.00000E+00
 5.000E-02 0.00000E+00
 1.000E-01 0.00000E+00
 2.000E-01 0.00000E+00
 3.000E-01 0.00000E+00
 4.000E-01 0.00000E+00
 5.000E-01 0.00000E+00
 7.500E-01 0.00000E+00
 1.000E+00 0.00000E+00
 1.200E+00 0.00000E+00
 1.400E+00 0.00000E+00
 1.600E+00 0.00000E+00
 1.800E+00 0.00000E+00
 2.000E+00 0.00000E+00
 2.200E+00 0.00000E+00
 2.400E+00 0.00000E+00
 2.600E+00 0.00000E+00
 2.800E+00 0.00000E+00
 3.000E+00 0.00000E+00
 3.200E+00 0.00000E+00
 3.400E+00 0.00000E+00
 3.600E+00 0.00000E+00
 3.800E+00 0.00000E+00
 4.000E+00 0.00000E+00
 4.200E+00 0.00000E+00
 4.400E+00 0.00000E+00
 4.600E+00 7.58499E-01
 4.800E+00 1.59502E+00
 5.000E+00 2.17972E+00
 5.500E+00 3.49480E+00
 6.000E+00 4.89035E+00
 6.500E+00 5.87383E+00
 7.000E+00 6.48724E+00
 7.500E+00 7.04830E+00
 8.000E+00 7.48426E+00
 8.500E+00 7.54024E+00
 9.000E+00 7.02567E+00
 9.500E+00 6.10235E+00
 1.000E+01 5.01272E+00
 1.100E+01 3.08803E+00
 1.200E+01 1.91713E+00
 1.300E+01 1.34229E+00
 1.400E+01 1.07100E+00
 1.500E+01 9.37292E-01
 1.600E+01 8.56822E-01
 1.700E+01 8.06692E-01
 1.800E+01 7.55357E-01
 1.900E+01 7.11851E-01
 2.000E+01 6.77665E-01
 2.100E+01 6.44609E-01
 2.200E+01 6.11187E-01
 2.300E+01 5.82831E-01
 2.400E+01 5.52914E-01
 2.500E+01 5.15659E-01
 2.600E+01 4.81267E-01
 2.700E+01 4.57044E-01
 2.800E+01 4.38391E-01
 2.900E+01 4.21532E-01
 3.000E+01 4.05192E-01
