# n + 208Pb: Gamma-ray intensity - 209Pb: Level  7 --> Level  3 - gamma energy    0.856910
# E-initial  =   2.424000 E-final=   1.567090
# E-threshold= 0.00000E+00
# # energies =    67
#    E           xs
 1.00000E-11 0.00000E+00
 2.53000E-08 0.00000E+00
 2.00000E-07 0.00000E+00
 1.00000E-06 6.06407E-03
 1.00000E-03 5.93235E-03
 2.00000E-03 8.24566E-03
 5.00000E-03 1.01771E-02
 1.00000E-02 7.97093E-03
 2.00000E-02 5.00815E-03
 5.00000E-02 2.67587E-03
 1.00000E-01 1.96573E-03
 2.00000E-01 2.04043E-03
 3.00000E-01 2.19018E-03
 4.00000E-01 2.27856E-03
 5.00000E-01 2.37210E-03
 7.50000E-01 2.71682E-03
 1.00000E+00 3.23267E-03
 1.20000E+00 3.78154E-03
 1.40000E+00 4.44292E-03
 1.60000E+00 5.26479E-03
 1.80000E+00 6.25451E-03
 2.00000E+00 7.43586E-03
 2.20000E+00 8.90365E-03
 2.40000E+00 1.05907E-02
 2.60000E+00 1.25844E-02
 2.80000E+00 8.79963E-03
 3.00000E+00 8.25937E-03
 3.20000E+00 8.56370E-03
 3.40000E+00 7.99572E-03
 3.60000E+00 7.79306E-03
 3.80000E+00 7.58459E-03
 4.00000E+00 7.55286E-03
 4.20000E+00 6.72322E-03
 4.40000E+00 5.51857E-03
 4.60000E+00 4.76107E-03
 4.80000E+00 4.61125E-03
 5.00000E+00 4.26063E-03
 5.50000E+00 3.45736E-03
 6.00000E+00 3.02029E-03
 6.50000E+00 2.90481E-03
 7.00000E+00 3.13826E-03
 7.50000E+00 3.66849E-03
 8.00000E+00 4.78635E-03
 8.50000E+00 6.76038E-03
 9.00000E+00 9.99925E-03
 9.50000E+00 1.50088E-02
 1.00000E+01 2.08431E-02
 1.10000E+01 2.46357E-02
 1.20000E+01 1.78092E-02
 1.30000E+01 1.19566E-02
 1.40000E+01 9.02785E-03
 1.50000E+01 7.21432E-03
 1.60000E+01 6.02061E-03
 1.70000E+01 5.85925E-03
 1.80000E+01 5.42436E-03
 1.90000E+01 5.22573E-03
 2.00000E+01 4.95452E-03
 2.10000E+01 4.44143E-03
 2.20000E+01 3.89899E-03
 2.30000E+01 3.69594E-03
 2.40000E+01 3.17446E-03
 2.50000E+01 2.99564E-03
 2.60000E+01 2.70523E-03
 2.70000E+01 2.58732E-03
 2.80000E+01 2.50554E-03
 2.90000E+01 2.35317E-03
 3.00000E+01 2.28152E-03
