# n + 208Pb: Gamma-ray intensity - 209Pb: Level  9 --> Level  0 - gamma energy    2.491000
# E-initial  =   2.491000 E-final=   0.000000
# E-threshold= 0.00000E+00
# # energies = 67
#    E         xs
 1.000E-11 0.00000E+00
 2.530E-08 0.00000E+00
 2.000E-07 0.00000E+00
 1.000E-06 1.01411E-03
 1.000E-03 1.58926E-03
 2.000E-03 2.53729E-03
 5.000E-03 3.21135E-03
 1.000E-02 2.51482E-03
 2.000E-02 1.59019E-03
 5.000E-02 3.46339E-03
 1.000E-01 3.74651E-03
 2.000E-01 3.20630E-03
 3.000E-01 2.98161E-03
 4.000E-01 2.98549E-03
 5.000E-01 3.15155E-03
 7.500E-01 3.91564E-03
 1.000E+00 4.94714E-03
 1.200E+00 5.98023E-03
 1.400E+00 7.18732E-03
 1.600E+00 8.67677E-03
 1.800E+00 1.04633E-02
 2.000E+00 1.25907E-02
 2.200E+00 1.52899E-02
 2.400E+00 1.83119E-02
 2.600E+00 2.18829E-02
 2.800E+00 1.69001E-02
 3.000E+00 1.61668E-02
 3.200E+00 1.70164E-02
 3.400E+00 1.65115E-02
 3.600E+00 1.65755E-02
 3.800E+00 1.67480E-02
 4.000E+00 1.71890E-02
 4.200E+00 1.55637E-02
 4.400E+00 1.33097E-02
 4.600E+00 1.19314E-02
 4.800E+00 1.13466E-02
 5.000E+00 1.04911E-02
 5.500E+00 9.03580E-03
 6.000E+00 7.76906E-03
 6.500E+00 6.97799E-03
 7.000E+00 6.50702E-03
 7.500E+00 6.57316E-03
 8.000E+00 7.25099E-03
 8.500E+00 8.55218E-03
 9.000E+00 1.10715E-02
 9.500E+00 1.52394E-02
 1.000E+01 2.06094E-02
 1.100E+01 2.72034E-02
 1.200E+01 2.11394E-02
 1.300E+01 1.39645E-02
 1.400E+01 1.03197E-02
 1.500E+01 8.95471E-03
 1.600E+01 7.42516E-03
 1.700E+01 7.05942E-03
 1.800E+01 6.32179E-03
 1.900E+01 6.51827E-03
 2.000E+01 6.54724E-03
 2.100E+01 5.64321E-03
 2.200E+01 5.47358E-03
 2.300E+01 5.10089E-03
 2.400E+01 4.42436E-03
 2.500E+01 4.08183E-03
 2.600E+01 3.41699E-03
 2.700E+01 3.17192E-03
 2.800E+01 2.90717E-03
 2.900E+01 2.68754E-03
 3.000E+01 2.55523E-03
