# n + 208Pb: Gamma-ray intensity - 209Pb: Level  9 --> Level  0 - gamma energy    2.491000
# E-initial  =   2.491000 E-final=   0.000000
# E-threshold= 0.00000E+00
# # energies =    67
#    E           xs
 1.00000E-11 0.00000E+00
 2.53000E-08 0.00000E+00
 2.00000E-07 0.00000E+00
 1.00000E-06 5.73396E-04
 1.00000E-03 1.35445E-03
 2.00000E-03 2.28260E-03
 5.00000E-03 2.95487E-03
 1.00000E-02 2.32591E-03
 2.00000E-02 1.47298E-03
 5.00000E-02 3.69853E-03
 1.00000E-01 4.05874E-03
 2.00000E-01 3.44795E-03
 3.00000E-01 3.17764E-03
 4.00000E-01 3.16190E-03
 5.00000E-01 3.32450E-03
 7.50000E-01 4.09567E-03
 1.00000E+00 5.12272E-03
 1.20000E+00 6.13619E-03
 1.40000E+00 7.32240E-03
 1.60000E+00 8.76950E-03
 1.80000E+00 1.04969E-02
 2.00000E+00 1.25470E-02
 2.20000E+00 1.51010E-02
 2.40000E+00 1.79931E-02
 2.60000E+00 2.14084E-02
 2.80000E+00 1.64417E-02
 3.00000E+00 1.57009E-02
 3.20000E+00 1.64921E-02
 3.40000E+00 1.59786E-02
 3.60000E+00 1.59547E-02
 3.80000E+00 1.61433E-02
 4.00000E+00 1.65089E-02
 4.20000E+00 1.49436E-02
 4.40000E+00 1.27698E-02
 4.60000E+00 1.14254E-02
 4.80000E+00 1.08412E-02
 5.00000E+00 9.99834E-03
 5.50000E+00 8.39263E-03
 6.00000E+00 7.01500E-03
 6.50000E+00 6.10120E-03
 7.00000E+00 5.55493E-03
 7.50000E+00 5.52955E-03
 8.00000E+00 6.07738E-03
 8.50000E+00 7.30931E-03
 9.00000E+00 9.72454E-03
 9.50000E+00 1.37777E-02
 1.00000E+01 1.93575E-02
 1.10000E+01 2.67766E-02
 1.20000E+01 2.10243E-02
 1.30000E+01 1.38803E-02
 1.40000E+01 1.00169E-02
 1.50000E+01 8.62334E-03
 1.60000E+01 7.25415E-03
 1.70000E+01 7.35496E-03
 1.80000E+01 6.90902E-03
 1.90000E+01 6.86824E-03
 2.00000E+01 6.74628E-03
 2.10000E+01 6.00174E-03
 2.20000E+01 5.16332E-03
 2.30000E+01 4.79459E-03
 2.40000E+01 3.87716E-03
 2.50000E+01 3.60742E-03
 2.60000E+01 3.13870E-03
 2.70000E+01 2.98712E-03
 2.80000E+01 2.94454E-03
 2.90000E+01 2.76890E-03
 3.00000E+01 2.68553E-03
