# n + 208Pb: Gamma-ray intensity - 207Pb: Level  5 --> Level  1 - gamma energy    2.054172
# E-initial  =   2.623870 E-final=   0.569698
# E-threshold= 1.00402E+01
# # energies = 67
#    E         xs
 1.000E-11 0.00000E+00
 2.530E-08 0.00000E+00
 2.000E-07 0.00000E+00
 1.000E-06 0.00000E+00
 1.000E-03 0.00000E+00
 2.000E-03 0.00000E+00
 5.000E-03 0.00000E+00
 1.000E-02 0.00000E+00
 2.000E-02 0.00000E+00
 5.000E-02 0.00000E+00
 1.000E-01 0.00000E+00
 2.000E-01 0.00000E+00
 3.000E-01 0.00000E+00
 4.000E-01 0.00000E+00
 5.000E-01 0.00000E+00
 7.500E-01 0.00000E+00
 1.000E+00 0.00000E+00
 1.200E+00 0.00000E+00
 1.400E+00 0.00000E+00
 1.600E+00 0.00000E+00
 1.800E+00 0.00000E+00
 2.000E+00 0.00000E+00
 2.200E+00 0.00000E+00
 2.400E+00 0.00000E+00
 2.600E+00 0.00000E+00
 2.800E+00 0.00000E+00
 3.000E+00 0.00000E+00
 3.200E+00 0.00000E+00
 3.400E+00 0.00000E+00
 3.600E+00 0.00000E+00
 3.800E+00 0.00000E+00
 4.000E+00 0.00000E+00
 4.200E+00 0.00000E+00
 4.400E+00 0.00000E+00
 4.600E+00 0.00000E+00
 4.800E+00 0.00000E+00
 5.000E+00 0.00000E+00
 5.500E+00 0.00000E+00
 6.000E+00 0.00000E+00
 6.500E+00 0.00000E+00
 7.000E+00 0.00000E+00
 7.500E+00 0.00000E+00
 8.000E+00 0.00000E+00
 8.500E+00 0.00000E+00
 9.000E+00 0.00000E+00
 9.500E+00 0.00000E+00
 1.000E+01 0.00000E+00
 1.100E+01 1.62162E+00
 1.200E+01 5.32381E+00
 1.300E+01 8.28403E+00
 1.400E+01 9.35155E+00
 1.500E+01 9.28801E+00
 1.600E+01 8.60057E+00
 1.700E+01 7.52679E+00
 1.800E+01 6.37610E+00
 1.900E+01 5.26872E+00
 2.000E+01 4.32293E+00
 2.100E+01 3.51605E+00
 2.200E+01 2.96420E+00
 2.300E+01 2.56193E+00
 2.400E+01 2.30105E+00
 2.500E+01 2.11267E+00
 2.600E+01 1.98555E+00
 2.700E+01 1.89156E+00
 2.800E+01 1.82587E+00
 2.900E+01 1.75694E+00
 3.000E+01 1.70667E+00
