# n + 208Pb: Gamma-ray intensity - 208Pb: Level 27 --> Level  5 - gamma energy    0.760300
# E-initial  =   4.680270 E-final=   3.919970
# E-threshold= 4.70297E+00
# # energies = 67
#    E         xs
 1.000E-11 0.00000E+00
 2.530E-08 0.00000E+00
 2.000E-07 0.00000E+00
 1.000E-06 0.00000E+00
 1.000E-03 0.00000E+00
 2.000E-03 0.00000E+00
 5.000E-03 0.00000E+00
 1.000E-02 0.00000E+00
 2.000E-02 0.00000E+00
 5.000E-02 0.00000E+00
 1.000E-01 0.00000E+00
 2.000E-01 0.00000E+00
 3.000E-01 0.00000E+00
 4.000E-01 0.00000E+00
 5.000E-01 0.00000E+00
 7.500E-01 0.00000E+00
 1.000E+00 0.00000E+00
 1.200E+00 0.00000E+00
 1.400E+00 0.00000E+00
 1.600E+00 0.00000E+00
 1.800E+00 0.00000E+00
 2.000E+00 0.00000E+00
 2.200E+00 0.00000E+00
 2.400E+00 0.00000E+00
 2.600E+00 0.00000E+00
 2.800E+00 0.00000E+00
 3.000E+00 0.00000E+00
 3.200E+00 0.00000E+00
 3.400E+00 0.00000E+00
 3.600E+00 0.00000E+00
 3.800E+00 0.00000E+00
 4.000E+00 0.00000E+00
 4.200E+00 0.00000E+00
 4.400E+00 0.00000E+00
 4.600E+00 0.00000E+00
 4.800E+00 6.23534E-01
 5.000E+00 2.62596E+00
 5.500E+00 6.71447E+00
 6.000E+00 8.91727E+00
 6.500E+00 1.13040E+01
 7.000E+00 1.38725E+01
 7.500E+00 1.63914E+01
 8.000E+00 1.88335E+01
 8.500E+00 2.08136E+01
 9.000E+00 2.13630E+01
 9.500E+00 2.02031E+01
 1.000E+01 1.77339E+01
 1.100E+01 1.19331E+01
 1.200E+01 7.49599E+00
 1.300E+01 5.12182E+00
 1.400E+01 3.96650E+00
 1.500E+01 3.41770E+00
 1.600E+01 3.14552E+00
 1.700E+01 2.99081E+00
 1.800E+01 2.82925E+00
 1.900E+01 2.68515E+00
 2.000E+01 2.60993E+00
 2.100E+01 2.50287E+00
 2.200E+01 2.39332E+00
 2.300E+01 2.31322E+00
 2.400E+01 2.21148E+00
 2.500E+01 2.10297E+00
 2.600E+01 2.01915E+00
 2.700E+01 1.92753E+00
 2.800E+01 1.85529E+00
 2.900E+01 1.79133E+00
 3.000E+01 1.73008E+00
