# n + 208Pb: Gamma-ray intensity - 208Pb: Level 18 --> Level  3 - gamma energy    0.786790
# E-initial  =   4.261870 E-final=   3.475080
# E-threshold= 4.28254E+00
# # energies = 67
#    E         xs
 1.000E-11 0.00000E+00
 2.530E-08 0.00000E+00
 2.000E-07 0.00000E+00
 1.000E-06 0.00000E+00
 1.000E-03 0.00000E+00
 2.000E-03 0.00000E+00
 5.000E-03 0.00000E+00
 1.000E-02 0.00000E+00
 2.000E-02 0.00000E+00
 5.000E-02 0.00000E+00
 1.000E-01 0.00000E+00
 2.000E-01 0.00000E+00
 3.000E-01 0.00000E+00
 4.000E-01 0.00000E+00
 5.000E-01 0.00000E+00
 7.500E-01 0.00000E+00
 1.000E+00 0.00000E+00
 1.200E+00 0.00000E+00
 1.400E+00 0.00000E+00
 1.600E+00 0.00000E+00
 1.800E+00 0.00000E+00
 2.000E+00 0.00000E+00
 2.200E+00 0.00000E+00
 2.400E+00 0.00000E+00
 2.600E+00 0.00000E+00
 2.800E+00 0.00000E+00
 3.000E+00 0.00000E+00
 3.200E+00 0.00000E+00
 3.400E+00 0.00000E+00
 3.600E+00 0.00000E+00
 3.800E+00 0.00000E+00
 4.000E+00 0.00000E+00
 4.200E+00 0.00000E+00
 4.400E+00 8.73598E+00
 4.600E+00 1.51374E+01
 4.800E+00 1.88717E+01
 5.000E+00 2.02891E+01
 5.500E+00 1.93072E+01
 6.000E+00 1.73554E+01
 6.500E+00 1.57903E+01
 7.000E+00 1.45631E+01
 7.500E+00 1.37514E+01
 8.000E+00 1.26155E+01
 8.500E+00 1.08449E+01
 9.000E+00 8.84758E+00
 9.500E+00 6.83629E+00
 1.000E+01 5.11540E+00
 1.100E+01 2.75000E+00
 1.200E+01 1.60895E+00
 1.300E+01 1.08106E+00
 1.400E+01 8.45708E-01
 1.500E+01 7.26749E-01
 1.600E+01 6.55934E-01
 1.700E+01 6.13107E-01
 1.800E+01 5.68007E-01
 1.900E+01 5.30084E-01
 2.000E+01 5.01706E-01
 2.100E+01 4.74531E-01
 2.200E+01 4.47671E-01
 2.300E+01 4.26098E-01
 2.400E+01 4.03116E-01
 2.500E+01 3.77686E-01
 2.600E+01 3.54430E-01
 2.700E+01 3.40858E-01
 2.800E+01 3.28227E-01
 2.900E+01 3.17255E-01
 3.000E+01 3.06185E-01
