# n + 208Pb: Gamma-ray intensity - 208Pb: Level  7 --> Level  3 - gamma energy    0.485850
# E-initial  =   3.960960 E-final=   3.475110
# E-threshold= 3.98017E+00
# # energies = 67
#    E         xs
 1.000E-11 0.00000E+00
 2.530E-08 0.00000E+00
 2.000E-07 0.00000E+00
 1.000E-06 0.00000E+00
 1.000E-03 0.00000E+00
 2.000E-03 0.00000E+00
 5.000E-03 0.00000E+00
 1.000E-02 0.00000E+00
 2.000E-02 0.00000E+00
 5.000E-02 0.00000E+00
 1.000E-01 0.00000E+00
 2.000E-01 0.00000E+00
 3.000E-01 0.00000E+00
 4.000E-01 0.00000E+00
 5.000E-01 0.00000E+00
 7.500E-01 0.00000E+00
 1.000E+00 0.00000E+00
 1.200E+00 0.00000E+00
 1.400E+00 0.00000E+00
 1.600E+00 0.00000E+00
 1.800E+00 0.00000E+00
 2.000E+00 0.00000E+00
 2.200E+00 0.00000E+00
 2.400E+00 0.00000E+00
 2.600E+00 0.00000E+00
 2.800E+00 0.00000E+00
 3.000E+00 0.00000E+00
 3.200E+00 0.00000E+00
 3.400E+00 0.00000E+00
 3.600E+00 0.00000E+00
 3.800E+00 0.00000E+00
 4.000E+00 2.78471E-01
 4.200E+00 8.92817E-01
 4.400E+00 1.15082E+00
 4.600E+00 1.26297E+00
 4.800E+00 1.29185E+00
 5.000E+00 1.28713E+00
 5.500E+00 1.24624E+00
 6.000E+00 1.20767E+00
 6.500E+00 1.18605E+00
 7.000E+00 1.19012E+00
 7.500E+00 1.21743E+00
 8.000E+00 1.22110E+00
 8.500E+00 1.15314E+00
 9.000E+00 1.01073E+00
 9.500E+00 8.39307E-01
 1.000E+01 6.68191E-01
 1.100E+01 4.00500E-01
 1.200E+01 2.54038E-01
 1.300E+01 1.83415E-01
 1.400E+01 1.49530E-01
 1.500E+01 1.32096E-01
 1.600E+01 1.21429E-01
 1.700E+01 1.14993E-01
 1.800E+01 1.07876E-01
 1.900E+01 1.02209E-01
 2.000E+01 9.74924E-02
 2.100E+01 9.31807E-02
 2.200E+01 8.94488E-02
 2.300E+01 8.55519E-02
 2.400E+01 8.13985E-02
 2.500E+01 7.79604E-02
 2.600E+01 7.42450E-02
 2.700E+01 7.14794E-02
 2.800E+01 6.84363E-02
 2.900E+01 6.63258E-02
 3.000E+01 6.35502E-02
