# n + 208Pb: Gamma-ray intensity - 208Pb: Level  6 --> Level  3 - gamma energy    0.471500
# E-initial  =   3.946580 E-final=   3.475080
# E-threshold= 3.96572E+00
# # energies = 67
#    E         xs
 1.000E-11 0.00000E+00
 2.530E-08 0.00000E+00
 2.000E-07 0.00000E+00
 1.000E-06 0.00000E+00
 1.000E-03 0.00000E+00
 2.000E-03 0.00000E+00
 5.000E-03 0.00000E+00
 1.000E-02 0.00000E+00
 2.000E-02 0.00000E+00
 5.000E-02 0.00000E+00
 1.000E-01 0.00000E+00
 2.000E-01 0.00000E+00
 3.000E-01 0.00000E+00
 4.000E-01 0.00000E+00
 5.000E-01 0.00000E+00
 7.500E-01 0.00000E+00
 1.000E+00 0.00000E+00
 1.200E+00 0.00000E+00
 1.400E+00 0.00000E+00
 1.600E+00 0.00000E+00
 1.800E+00 0.00000E+00
 2.000E+00 0.00000E+00
 2.200E+00 0.00000E+00
 2.400E+00 0.00000E+00
 2.600E+00 0.00000E+00
 2.800E+00 0.00000E+00
 3.000E+00 0.00000E+00
 3.200E+00 0.00000E+00
 3.400E+00 0.00000E+00
 3.600E+00 0.00000E+00
 3.800E+00 0.00000E+00
 4.000E+00 4.54188E+00
 4.200E+00 1.29867E+01
 4.400E+00 1.68388E+01
 4.600E+00 1.79489E+01
 4.800E+00 1.79047E+01
 5.000E+00 1.73252E+01
 5.500E+00 1.58085E+01
 6.000E+00 1.45334E+01
 6.500E+00 1.34961E+01
 7.000E+00 1.28366E+01
 7.500E+00 1.24809E+01
 8.000E+00 1.16739E+01
 8.500E+00 1.01607E+01
 9.000E+00 8.37041E+00
 9.500E+00 6.52935E+00
 1.000E+01 4.94117E+00
 1.100E+01 2.72253E+00
 1.200E+01 1.63715E+00
 1.300E+01 1.13155E+00
 1.400E+01 9.03898E-01
 1.500E+01 7.85411E-01
 1.600E+01 7.09284E-01
 1.700E+01 6.61501E-01
 1.800E+01 6.10595E-01
 1.900E+01 5.69091E-01
 2.000E+01 5.35330E-01
 2.100E+01 5.04887E-01
 2.200E+01 4.73970E-01
 2.300E+01 4.48920E-01
 2.400E+01 4.23932E-01
 2.500E+01 3.91946E-01
 2.600E+01 3.65407E-01
 2.700E+01 3.49821E-01
 2.800E+01 3.36263E-01
 2.900E+01 3.24049E-01
 3.000E+01 3.11913E-01
