# n + 208Pb: Gamma-ray intensity - 208Pb: Level  7 --> Level  2 - gamma energy    0.763220
# E-initial  =   3.960960 E-final=   3.197740
# E-threshold= 3.98017E+00
# # energies = 66
#    E         xs
 1.000E-11 0.00000E+00
 2.530E-08 0.00000E+00
 1.000E-06 0.00000E+00
 1.000E-03 0.00000E+00
 2.000E-03 0.00000E+00
 5.000E-03 0.00000E+00
 1.000E-02 0.00000E+00
 2.000E-02 0.00000E+00
 5.000E-02 0.00000E+00
 1.000E-01 0.00000E+00
 2.000E-01 0.00000E+00
 3.000E-01 0.00000E+00
 4.000E-01 0.00000E+00
 5.000E-01 0.00000E+00
 7.500E-01 0.00000E+00
 1.000E+00 0.00000E+00
 1.200E+00 0.00000E+00
 1.400E+00 0.00000E+00
 1.600E+00 0.00000E+00
 1.800E+00 0.00000E+00
 2.000E+00 0.00000E+00
 2.200E+00 0.00000E+00
 2.400E+00 0.00000E+00
 2.600E+00 0.00000E+00
 2.800E+00 0.00000E+00
 3.000E+00 0.00000E+00
 3.200E+00 0.00000E+00
 3.400E+00 0.00000E+00
 3.600E+00 0.00000E+00
 3.800E+00 0.00000E+00
 4.000E+00 8.22478E+00
 4.200E+00 2.63698E+01
 4.400E+00 3.37543E+01
 4.600E+00 3.63326E+01
 4.800E+00 3.62934E+01
 5.000E+00 3.53289E+01
 5.500E+00 3.27829E+01
 6.000E+00 3.11806E+01
 6.500E+00 3.05109E+01
 7.000E+00 3.07431E+01
 7.500E+00 3.16297E+01
 8.000E+00 3.18236E+01
 8.500E+00 2.97333E+01
 9.000E+00 2.54576E+01
 9.500E+00 2.05095E+01
 1.000E+01 1.58556E+01
 1.100E+01 9.15561E+00
 1.200E+01 5.88639E+00
 1.300E+01 4.47608E+00
 1.400E+01 3.83808E+00
 1.500E+01 3.50868E+00
 1.600E+01 3.28719E+00
 1.700E+01 3.14051E+00
 1.800E+01 2.97047E+00
 1.900E+01 2.82712E+00
 2.000E+01 2.70208E+00
 2.100E+01 2.59022E+00
 2.200E+01 2.47059E+00
 2.300E+01 2.37120E+00
 2.400E+01 2.25172E+00
 2.500E+01 2.15464E+00
 2.600E+01 2.05930E+00
 2.700E+01 1.97756E+00
 2.800E+01 1.90640E+00
 2.900E+01 1.83215E+00
 3.000E+01 1.75749E+00
