# n + 208Pb: Gamma-ray intensity - 208Pb: Level  4 --> Level  2 - gamma energy    0.510700
# E-initial  =   3.708440 E-final=   3.197740
# E-threshold= 3.72643E+00
# # energies = 67
#    E         xs
 1.000E-11 0.00000E+00
 2.530E-08 0.00000E+00
 2.000E-07 0.00000E+00
 1.000E-06 0.00000E+00
 1.000E-03 0.00000E+00
 2.000E-03 0.00000E+00
 5.000E-03 0.00000E+00
 1.000E-02 0.00000E+00
 2.000E-02 0.00000E+00
 5.000E-02 0.00000E+00
 1.000E-01 0.00000E+00
 2.000E-01 0.00000E+00
 3.000E-01 0.00000E+00
 4.000E-01 0.00000E+00
 5.000E-01 0.00000E+00
 7.500E-01 0.00000E+00
 1.000E+00 0.00000E+00
 1.200E+00 0.00000E+00
 1.400E+00 0.00000E+00
 1.600E+00 0.00000E+00
 1.800E+00 0.00000E+00
 2.000E+00 0.00000E+00
 2.200E+00 0.00000E+00
 2.400E+00 0.00000E+00
 2.600E+00 0.00000E+00
 2.800E+00 0.00000E+00
 3.000E+00 0.00000E+00
 3.200E+00 0.00000E+00
 3.400E+00 0.00000E+00
 3.600E+00 0.00000E+00
 3.800E+00 4.02003E+01
 4.000E+00 1.00647E+02
 4.200E+00 1.47780E+02
 4.400E+00 1.73195E+02
 4.600E+00 1.87092E+02
 4.800E+00 1.94775E+02
 5.000E+00 2.00154E+02
 5.500E+00 2.11926E+02
 6.000E+00 2.24160E+02
 6.500E+00 2.40191E+02
 7.000E+00 2.61302E+02
 7.500E+00 2.86690E+02
 8.000E+00 3.07969E+02
 8.500E+00 3.15319E+02
 9.000E+00 3.02252E+02
 9.500E+00 2.73009E+02
 1.000E+01 2.35092E+02
 1.100E+01 1.58370E+02
 1.200E+01 1.04318E+02
 1.300E+01 7.58251E+01
 1.400E+01 6.10586E+01
 1.500E+01 5.37782E+01
 1.600E+01 4.97736E+01
 1.700E+01 4.75562E+01
 1.800E+01 4.49333E+01
 1.900E+01 4.30976E+01
 2.000E+01 4.12810E+01
 2.100E+01 3.96557E+01
 2.200E+01 3.75879E+01
 2.300E+01 3.63089E+01
 2.400E+01 3.44451E+01
 2.500E+01 3.30441E+01
 2.600E+01 3.13354E+01
 2.700E+01 3.02614E+01
 2.800E+01 2.92924E+01
 2.900E+01 2.78969E+01
 3.000E+01 2.69311E+01
