# n + 208Pb: Gamma-ray intensity - 208Pb: Level 14 --> Level  2 - gamma energy    0.927570
# E-initial  =   4.125310 E-final=   3.197740
# E-threshold= 4.14532E+00
# # energies = 67
#    E         xs
 1.000E-11 0.00000E+00
 2.530E-08 0.00000E+00
 2.000E-07 0.00000E+00
 1.000E-06 0.00000E+00
 1.000E-03 0.00000E+00
 2.000E-03 0.00000E+00
 5.000E-03 0.00000E+00
 1.000E-02 0.00000E+00
 2.000E-02 0.00000E+00
 5.000E-02 0.00000E+00
 1.000E-01 0.00000E+00
 2.000E-01 0.00000E+00
 3.000E-01 0.00000E+00
 4.000E-01 0.00000E+00
 5.000E-01 0.00000E+00
 7.500E-01 0.00000E+00
 1.000E+00 0.00000E+00
 1.200E+00 0.00000E+00
 1.400E+00 0.00000E+00
 1.600E+00 0.00000E+00
 1.800E+00 0.00000E+00
 2.000E+00 0.00000E+00
 2.200E+00 0.00000E+00
 2.400E+00 0.00000E+00
 2.600E+00 0.00000E+00
 2.800E+00 0.00000E+00
 3.000E+00 0.00000E+00
 3.200E+00 0.00000E+00
 3.400E+00 0.00000E+00
 3.600E+00 0.00000E+00
 3.800E+00 0.00000E+00
 4.000E+00 0.00000E+00
 4.200E+00 2.08027E+01
 4.400E+00 4.58528E+01
 4.600E+00 5.82496E+01
 4.800E+00 6.26296E+01
 5.000E+00 6.27170E+01
 5.500E+00 5.74217E+01
 6.000E+00 5.23063E+01
 6.500E+00 4.84962E+01
 7.000E+00 4.58188E+01
 7.500E+00 4.43223E+01
 8.000E+00 4.15361E+01
 8.500E+00 3.64796E+01
 9.000E+00 3.01688E+01
 9.500E+00 2.39413E+01
 1.000E+01 1.82899E+01
 1.100E+01 1.03917E+01
 1.200E+01 6.46521E+00
 1.300E+01 4.58075E+00
 1.400E+01 3.69124E+00
 1.500E+01 3.22389E+00
 1.600E+01 2.94189E+00
 1.700E+01 2.78990E+00
 1.800E+01 2.60932E+00
 1.900E+01 2.46824E+00
 2.000E+01 2.35940E+00
 2.100E+01 2.25228E+00
 2.200E+01 2.18950E+00
 2.300E+01 2.08850E+00
 2.400E+01 1.99193E+00
 2.500E+01 1.92499E+00
 2.600E+01 1.82724E+00
 2.700E+01 1.76219E+00
 2.800E+01 1.67904E+00
 2.900E+01 1.64602E+00
 3.000E+01 1.56850E+00
