# n + 208Pb: Gamma-ray intensity - 207Pb: Level  7 --> Level  3 - gamma energy    1.068630
# E-initial  =   2.702000 E-final=   1.633370
# E-threshold= 1.01187E+01
# # energies = 67
#    E         xs
 1.000E-11 0.00000E+00
 2.530E-08 0.00000E+00
 2.000E-07 0.00000E+00
 1.000E-06 0.00000E+00
 1.000E-03 0.00000E+00
 2.000E-03 0.00000E+00
 5.000E-03 0.00000E+00
 1.000E-02 0.00000E+00
 2.000E-02 0.00000E+00
 5.000E-02 0.00000E+00
 1.000E-01 0.00000E+00
 2.000E-01 0.00000E+00
 3.000E-01 0.00000E+00
 4.000E-01 0.00000E+00
 5.000E-01 0.00000E+00
 7.500E-01 0.00000E+00
 1.000E+00 0.00000E+00
 1.200E+00 0.00000E+00
 1.400E+00 0.00000E+00
 1.600E+00 0.00000E+00
 1.800E+00 0.00000E+00
 2.000E+00 0.00000E+00
 2.200E+00 0.00000E+00
 2.400E+00 0.00000E+00
 2.600E+00 0.00000E+00
 2.800E+00 0.00000E+00
 3.000E+00 0.00000E+00
 3.200E+00 0.00000E+00
 3.400E+00 0.00000E+00
 3.600E+00 0.00000E+00
 3.800E+00 0.00000E+00
 4.000E+00 0.00000E+00
 4.200E+00 0.00000E+00
 4.400E+00 0.00000E+00
 4.600E+00 0.00000E+00
 4.800E+00 0.00000E+00
 5.000E+00 0.00000E+00
 5.500E+00 0.00000E+00
 6.000E+00 0.00000E+00
 6.500E+00 0.00000E+00
 7.000E+00 0.00000E+00
 7.500E+00 0.00000E+00
 8.000E+00 0.00000E+00
 8.500E+00 0.00000E+00
 9.000E+00 0.00000E+00
 9.500E+00 0.00000E+00
 1.000E+01 0.00000E+00
 1.100E+01 1.11824E+01
 1.200E+01 3.13111E+01
 1.300E+01 4.39319E+01
 1.400E+01 4.90262E+01
 1.500E+01 5.03381E+01
 1.600E+01 4.87789E+01
 1.700E+01 4.31092E+01
 1.800E+01 3.47360E+01
 1.900E+01 2.64087E+01
 2.000E+01 1.99098E+01
 2.100E+01 1.53582E+01
 2.200E+01 1.24861E+01
 2.300E+01 1.06586E+01
 2.400E+01 9.46999E+00
 2.500E+01 8.73259E+00
 2.600E+01 8.18152E+00
 2.700E+01 7.70978E+00
 2.800E+01 7.36137E+00
 2.900E+01 7.04036E+00
 3.000E+01 6.78134E+00
