# n + 208Pb: Gamma-ray intensity - 208Pb: Level  7 --> Level  2 - gamma energy    0.763450
# E-initial  =   3.961160 E-final=   3.197710
# E-threshold= 3.98037E+00
# # energies = 67
#    E         xs
 1.000E-11 0.00000E+00
 2.530E-08 0.00000E+00
 2.000E-07 0.00000E+00
 1.000E-06 0.00000E+00
 1.000E-03 0.00000E+00
 2.000E-03 0.00000E+00
 5.000E-03 0.00000E+00
 1.000E-02 0.00000E+00
 2.000E-02 0.00000E+00
 5.000E-02 0.00000E+00
 1.000E-01 0.00000E+00
 2.000E-01 0.00000E+00
 3.000E-01 0.00000E+00
 4.000E-01 0.00000E+00
 5.000E-01 0.00000E+00
 7.500E-01 0.00000E+00
 1.000E+00 0.00000E+00
 1.200E+00 0.00000E+00
 1.400E+00 0.00000E+00
 1.600E+00 0.00000E+00
 1.800E+00 0.00000E+00
 2.000E+00 0.00000E+00
 2.200E+00 0.00000E+00
 2.400E+00 0.00000E+00
 2.600E+00 0.00000E+00
 2.800E+00 0.00000E+00
 3.000E+00 0.00000E+00
 3.200E+00 0.00000E+00
 3.400E+00 0.00000E+00
 3.600E+00 0.00000E+00
 3.800E+00 0.00000E+00
 4.000E+00 1.02907E+01
 4.200E+00 3.55596E+01
 4.400E+00 4.78819E+01
 4.600E+00 5.48510E+01
 4.800E+00 5.91524E+01
 5.000E+00 6.16690E+01
 5.500E+00 6.32609E+01
 6.000E+00 6.25863E+01
 6.500E+00 6.13457E+01
 7.000E+00 6.06710E+01
 7.500E+00 6.09061E+01
 8.000E+00 5.99167E+01
 8.500E+00 5.55985E+01
 9.000E+00 4.83018E+01
 9.500E+00 3.98380E+01
 1.000E+01 3.17174E+01
 1.100E+01 1.93913E+01
 1.200E+01 1.28774E+01
 1.300E+01 9.77190E+00
 1.400E+01 8.29476E+00
 1.500E+01 7.48085E+00
 1.600E+01 6.93163E+00
 1.700E+01 6.54610E+00
 1.800E+01 6.17160E+00
 1.900E+01 5.85560E+00
 2.000E+01 5.58936E+00
 2.100E+01 5.33510E+00
 2.200E+01 5.08660E+00
 2.300E+01 4.86051E+00
 2.400E+01 4.64201E+00
 2.500E+01 4.40004E+00
 2.600E+01 4.18323E+00
 2.700E+01 4.03335E+00
 2.800E+01 3.89678E+00
 2.900E+01 3.77133E+00
 3.000E+01 3.64675E+00
