# n + 208Pb: Gamma-ray intensity - 207Pb: Level  2 --> Level  0 - gamma energy    0.897698
# E-initial  =   0.897698 E-final=   0.000000
# E-threshold= 8.30566E+00
# # energies =    67
#    E           xs
 1.00000E-11 0.00000E+00
 2.53000E-08 0.00000E+00
 2.00000E-07 0.00000E+00
 1.00000E-06 0.00000E+00
 1.00000E-03 0.00000E+00
 2.00000E-03 0.00000E+00
 5.00000E-03 0.00000E+00
 1.00000E-02 0.00000E+00
 2.00000E-02 0.00000E+00
 5.00000E-02 0.00000E+00
 1.00000E-01 0.00000E+00
 2.00000E-01 0.00000E+00
 3.00000E-01 0.00000E+00
 4.00000E-01 0.00000E+00
 5.00000E-01 0.00000E+00
 7.50000E-01 0.00000E+00
 1.00000E+00 0.00000E+00
 1.20000E+00 0.00000E+00
 1.40000E+00 0.00000E+00
 1.60000E+00 0.00000E+00
 1.80000E+00 0.00000E+00
 2.00000E+00 0.00000E+00
 2.20000E+00 0.00000E+00
 2.40000E+00 0.00000E+00
 2.60000E+00 0.00000E+00
 2.80000E+00 0.00000E+00
 3.00000E+00 0.00000E+00
 3.20000E+00 0.00000E+00
 3.40000E+00 0.00000E+00
 3.60000E+00 0.00000E+00
 3.80000E+00 0.00000E+00
 4.00000E+00 0.00000E+00
 4.20000E+00 0.00000E+00
 4.40000E+00 0.00000E+00
 4.60000E+00 0.00000E+00
 4.80000E+00 0.00000E+00
 5.00000E+00 0.00000E+00
 5.50000E+00 0.00000E+00
 6.00000E+00 0.00000E+00
 6.50000E+00 0.00000E+00
 7.00000E+00 0.00000E+00
 7.50000E+00 0.00000E+00
 8.00000E+00 0.00000E+00
 8.50000E+00 1.27943E+00
 9.00000E+00 2.39837E+01
 9.50000E+00 7.02081E+01
 1.00000E+01 1.20823E+02
 1.10000E+01 2.04446E+02
 1.20000E+01 2.35382E+02
 1.30000E+01 2.25390E+02
 1.40000E+01 2.02621E+02
 1.50000E+01 1.81692E+02
 1.60000E+01 1.58812E+02
 1.70000E+01 1.33326E+02
 1.80000E+01 1.09238E+02
 1.90000E+01 8.69898E+01
 2.00000E+01 7.02331E+01
 2.10000E+01 5.66200E+01
 2.20000E+01 4.81227E+01
 2.30000E+01 4.20697E+01
 2.40000E+01 3.80950E+01
 2.50000E+01 3.52821E+01
 2.60000E+01 3.32250E+01
 2.70000E+01 3.14393E+01
 2.80000E+01 3.04421E+01
 2.90000E+01 2.90773E+01
 3.00000E+01 2.81898E+01
