# n + 208Pb: Gamma-ray intensity - 209Pb: Level 10 --> Level  3 - gamma energy    0.970910
# E-initial  =   2.538000 E-final=   1.567090
# E-threshold= 0.00000E+00
# # energies =    67
#    E           xs
 1.00000E-11 0.00000E+00
 2.53000E-08 0.00000E+00
 2.00000E-07 0.00000E+00
 1.00000E-06 8.16670E+00
 1.00000E-03 1.60273E-01
 2.00000E-03 8.74602E-02
 5.00000E-03 3.92788E-02
 1.00000E-02 2.11599E-02
 2.00000E-02 1.12386E-02
 5.00000E-02 6.41320E-03
 1.00000E-01 4.38543E-03
 2.00000E-01 3.03135E-03
 3.00000E-01 2.57624E-03
 4.00000E-01 2.40907E-03
 5.00000E-01 2.37452E-03
 7.50000E-01 2.57075E-03
 1.00000E+00 3.01209E-03
 1.20000E+00 3.50732E-03
 1.40000E+00 4.11290E-03
 1.60000E+00 4.87614E-03
 1.80000E+00 5.79333E-03
 2.00000E+00 6.88207E-03
 2.20000E+00 8.26619E-03
 2.40000E+00 9.87316E-03
 2.60000E+00 1.16601E-02
 2.80000E+00 1.07763E-02
 3.00000E+00 1.09669E-02
 3.20000E+00 1.17718E-02
 3.40000E+00 1.27004E-02
 3.60000E+00 1.39289E-02
 3.80000E+00 1.47197E-02
 4.00000E+00 1.59199E-02
 4.20000E+00 1.53849E-02
 4.40000E+00 1.26232E-02
 4.60000E+00 1.10855E-02
 4.80000E+00 1.03491E-02
 5.00000E+00 9.24602E-03
 5.50000E+00 7.09057E-03
 6.00000E+00 5.51778E-03
 6.50000E+00 4.68709E-03
 7.00000E+00 4.26416E-03
 7.50000E+00 4.20200E-03
 8.00000E+00 4.64471E-03
 8.50000E+00 5.59050E-03
 9.00000E+00 7.28101E-03
 9.50000E+00 1.02649E-02
 1.00000E+01 1.43805E-02
 1.10000E+01 1.97282E-02
 1.20000E+01 1.56525E-02
 1.30000E+01 1.04301E-02
 1.40000E+01 7.67080E-03
 1.50000E+01 6.63139E-03
 1.60000E+01 5.67864E-03
 1.70000E+01 6.11018E-03
 1.80000E+01 5.83710E-03
 1.90000E+01 5.93085E-03
 2.00000E+01 5.74762E-03
 2.10000E+01 5.09606E-03
 2.20000E+01 4.33172E-03
 2.30000E+01 4.04353E-03
 2.40000E+01 3.15982E-03
 2.50000E+01 2.93294E-03
 2.60000E+01 2.49558E-03
 2.70000E+01 2.37551E-03
 2.80000E+01 2.25904E-03
 2.90000E+01 2.10292E-03
 3.00000E+01 2.04180E-03
