# n + 208Pb: Gamma-ray intensity - 208Pb: Level 23 --> Level  2 - gamma energy    1.225936
# E-initial  =   4.423647 E-final=   3.197711
# E-threshold= 4.44510E+00
# # energies =    67
#    E           xs
 1.00000E-11 0.00000E+00
 2.53000E-08 0.00000E+00
 2.00000E-07 0.00000E+00
 1.00000E-06 0.00000E+00
 1.00000E-03 0.00000E+00
 2.00000E-03 0.00000E+00
 5.00000E-03 0.00000E+00
 1.00000E-02 0.00000E+00
 2.00000E-02 0.00000E+00
 5.00000E-02 0.00000E+00
 1.00000E-01 0.00000E+00
 2.00000E-01 0.00000E+00
 3.00000E-01 0.00000E+00
 4.00000E-01 0.00000E+00
 5.00000E-01 0.00000E+00
 7.50000E-01 0.00000E+00
 1.00000E+00 0.00000E+00
 1.20000E+00 0.00000E+00
 1.40000E+00 0.00000E+00
 1.60000E+00 0.00000E+00
 1.80000E+00 0.00000E+00
 2.00000E+00 0.00000E+00
 2.20000E+00 0.00000E+00
 2.40000E+00 0.00000E+00
 2.60000E+00 0.00000E+00
 2.80000E+00 0.00000E+00
 3.00000E+00 0.00000E+00
 3.20000E+00 0.00000E+00
 3.40000E+00 0.00000E+00
 3.60000E+00 0.00000E+00
 3.80000E+00 0.00000E+00
 4.00000E+00 0.00000E+00
 4.20000E+00 0.00000E+00
 4.40000E+00 0.00000E+00
 4.60000E+00 8.82068E+00
 4.80000E+00 1.85444E+01
 5.00000E+00 2.53148E+01
 5.50000E+00 4.04354E+01
 6.00000E+00 5.61063E+01
 6.50000E+00 6.67519E+01
 7.00000E+00 7.32576E+01
 7.50000E+00 7.91858E+01
 8.00000E+00 8.35952E+01
 8.50000E+00 8.32657E+01
 9.00000E+00 7.60308E+01
 9.50000E+00 6.42428E+01
 1.00000E+01 5.10142E+01
 1.10000E+01 2.92877E+01
 1.20000E+01 1.71862E+01
 1.30000E+01 1.17576E+01
 1.40000E+01 9.37302E+00
 1.50000E+01 8.24441E+00
 1.60000E+01 7.55968E+00
 1.70000E+01 7.14897E+00
 1.80000E+01 6.66321E+00
 1.90000E+01 6.24617E+00
 2.00000E+01 5.92892E+00
 2.10000E+01 5.62303E+00
 2.20000E+01 5.31019E+00
 2.30000E+01 5.04541E+00
 2.40000E+01 4.76049E+00
 2.50000E+01 4.41325E+00
 2.60000E+01 4.15416E+00
 2.70000E+01 3.91955E+00
 2.80000E+01 3.72817E+00
 2.90000E+01 3.56816E+00
 3.00000E+01 3.41337E+00
