# n + 208Pb: Gamma-ray intensity - 208Pb: Level 21 --> Level  1 - gamma energy    1.744150
# E-initial  =   4.358670 E-final=   2.614520
# E-threshold= 4.37981E+00
# # energies = 67
#    E         xs
 1.000E-11 0.00000E+00
 2.530E-08 0.00000E+00
 2.000E-07 0.00000E+00
 1.000E-06 0.00000E+00
 1.000E-03 0.00000E+00
 2.000E-03 0.00000E+00
 5.000E-03 0.00000E+00
 1.000E-02 0.00000E+00
 2.000E-02 0.00000E+00
 5.000E-02 0.00000E+00
 1.000E-01 0.00000E+00
 2.000E-01 0.00000E+00
 3.000E-01 0.00000E+00
 4.000E-01 0.00000E+00
 5.000E-01 0.00000E+00
 7.500E-01 0.00000E+00
 1.000E+00 0.00000E+00
 1.200E+00 0.00000E+00
 1.400E+00 0.00000E+00
 1.600E+00 0.00000E+00
 1.800E+00 0.00000E+00
 2.000E+00 0.00000E+00
 2.200E+00 0.00000E+00
 2.400E+00 0.00000E+00
 2.600E+00 0.00000E+00
 2.800E+00 0.00000E+00
 3.000E+00 0.00000E+00
 3.200E+00 0.00000E+00
 3.400E+00 0.00000E+00
 3.600E+00 0.00000E+00
 3.800E+00 0.00000E+00
 4.000E+00 0.00000E+00
 4.200E+00 0.00000E+00
 4.400E+00 1.06652E+00
 4.600E+00 3.78738E+00
 4.800E+00 5.36615E+00
 5.000E+00 6.09651E+00
 5.500E+00 5.99675E+00
 6.000E+00 5.36673E+00
 6.500E+00 4.86653E+00
 7.000E+00 4.45950E+00
 7.500E+00 4.17528E+00
 8.000E+00 3.80796E+00
 8.500E+00 3.26345E+00
 9.000E+00 2.65610E+00
 9.500E+00 2.04796E+00
 1.000E+01 1.52802E+00
 1.100E+01 8.15579E-01
 1.200E+01 4.73153E-01
 1.300E+01 3.15117E-01
 1.400E+01 2.44766E-01
 1.500E+01 2.09549E-01
 1.600E+01 1.89207E-01
 1.700E+01 1.77002E-01
 1.800E+01 1.64331E-01
 1.900E+01 1.53529E-01
 2.000E+01 1.45694E-01
 2.100E+01 1.37962E-01
 2.200E+01 1.30490E-01
 2.300E+01 1.24441E-01
 2.400E+01 1.17823E-01
 2.500E+01 1.10937E-01
 2.600E+01 1.04428E-01
 2.700E+01 1.00595E-01
 2.800E+01 9.69249E-02
 2.900E+01 9.38188E-02
 3.000E+01 9.06298E-02
