# n + 208Pb: Gamma-ray intensity - 209Pb: Level  8 --> Level  0 - gamma energy    2.463000
# E-initial  =   2.463000 E-final=   0.000000
# E-threshold= 0.00000E+00
# # energies = 67
#    E         xs
 1.000E-11 0.00000E+00
 2.530E-08 0.00000E+00
 2.000E-07 0.00000E+00
 1.000E-06 1.03976E-02
 1.000E-03 8.39686E-03
 2.000E-03 1.13124E-02
 5.000E-03 1.37421E-02
 1.000E-02 1.07223E-02
 2.000E-02 6.72953E-03
 5.000E-02 3.64004E-03
 1.000E-01 2.69502E-03
 2.000E-01 2.78800E-03
 3.000E-01 3.00493E-03
 4.000E-01 3.14781E-03
 5.000E-01 3.30138E-03
 7.500E-01 3.85297E-03
 1.000E+00 4.65458E-03
 1.200E+00 5.49185E-03
 1.400E+00 6.55551E-03
 1.600E+00 7.80157E-03
 1.800E+00 9.35160E-03
 2.000E+00 1.12143E-02
 2.200E+00 1.34271E-02
 2.400E+00 1.60540E-02
 2.600E+00 1.93884E-02
 2.800E+00 1.36504E-02
 3.000E+00 1.28883E-02
 3.200E+00 1.35124E-02
 3.400E+00 1.26493E-02
 3.600E+00 1.24609E-02
 3.800E+00 1.21594E-02
 4.000E+00 1.22060E-02
 4.200E+00 1.07056E-02
 4.400E+00 8.46186E-03
 4.600E+00 7.30067E-03
 4.800E+00 6.51614E-03
 5.000E+00 5.71703E-03
 5.500E+00 4.78356E-03
 6.000E+00 4.02611E-03
 6.500E+00 3.85408E-03
 7.000E+00 3.77778E-03
 7.500E+00 4.20079E-03
 8.000E+00 4.99640E-03
 8.500E+00 6.15042E-03
 9.000E+00 8.38324E-03
 9.500E+00 1.19085E-02
 1.000E+01 1.62995E-02
 1.100E+01 2.20560E-02
 1.200E+01 1.71176E-02
 1.300E+01 1.05978E-02
 1.400E+01 7.75932E-03
 1.500E+01 6.27699E-03
 1.600E+01 5.24337E-03
 1.700E+01 4.50393E-03
 1.800E+01 3.73159E-03
 1.900E+01 3.42295E-03
 2.000E+01 3.24316E-03
 2.100E+01 3.06979E-03
 2.200E+01 2.87776E-03
 2.300E+01 2.82346E-03
 2.400E+01 2.75937E-03
 2.500E+01 2.70444E-03
 2.600E+01 2.70863E-03
 2.700E+01 2.63777E-03
 2.800E+01 2.44927E-03
 2.900E+01 2.47253E-03
 3.000E+01 2.52539E-03
