# n + 208Pb: Gamma-ray intensity - 208Pb: Level 18 --> Level  2 - gamma energy    1.007660
# E-initial  =   4.205400 E-final=   3.197740
# E-threshold= 4.22580E+00
# # energies = 66
#    E         xs
 1.000E-11 0.00000E+00
 2.530E-08 0.00000E+00
 1.000E-06 0.00000E+00
 1.000E-03 0.00000E+00
 2.000E-03 0.00000E+00
 5.000E-03 0.00000E+00
 1.000E-02 0.00000E+00
 2.000E-02 0.00000E+00
 5.000E-02 0.00000E+00
 1.000E-01 0.00000E+00
 2.000E-01 0.00000E+00
 3.000E-01 0.00000E+00
 4.000E-01 0.00000E+00
 5.000E-01 0.00000E+00
 7.500E-01 0.00000E+00
 1.000E+00 0.00000E+00
 1.200E+00 0.00000E+00
 1.400E+00 0.00000E+00
 1.600E+00 0.00000E+00
 1.800E+00 0.00000E+00
 2.000E+00 0.00000E+00
 2.200E+00 0.00000E+00
 2.400E+00 0.00000E+00
 2.600E+00 0.00000E+00
 2.800E+00 0.00000E+00
 3.000E+00 0.00000E+00
 3.200E+00 0.00000E+00
 3.400E+00 0.00000E+00
 3.600E+00 0.00000E+00
 3.800E+00 0.00000E+00
 4.000E+00 0.00000E+00
 4.200E+00 0.00000E+00
 4.400E+00 1.69367E+01
 4.600E+00 2.54753E+01
 4.800E+00 3.03102E+01
 5.000E+00 3.24015E+01
 5.500E+00 3.33170E+01
 6.000E+00 3.44006E+01
 6.500E+00 3.66833E+01
 7.000E+00 3.97865E+01
 7.500E+00 4.36256E+01
 8.000E+00 4.72360E+01
 8.500E+00 4.84086E+01
 9.000E+00 4.51645E+01
 9.500E+00 3.86660E+01
 1.000E+01 3.12071E+01
 1.100E+01 1.84848E+01
 1.200E+01 1.12699E+01
 1.300E+01 8.14441E+00
 1.400E+01 6.76073E+00
 1.500E+01 6.13218E+00
 1.600E+01 5.79152E+00
 1.700E+01 5.60123E+00
 1.800E+01 5.30897E+00
 1.900E+01 5.10902E+00
 2.000E+01 4.90543E+00
 2.100E+01 4.71964E+00
 2.200E+01 4.51156E+00
 2.300E+01 4.39518E+00
 2.400E+01 4.15780E+00
 2.500E+01 4.03008E+00
 2.600E+01 3.82397E+00
 2.700E+01 3.70950E+00
 2.800E+01 3.61612E+00
 2.900E+01 3.41781E+00
 3.000E+01 3.32415E+00
