# n + 208Pb: Gamma-ray intensity - 208Pb: Level 14 --> Level  3 - gamma energy    0.705336
# E-initial  =   4.180414 E-final=   3.475078
# E-threshold= 4.20069E+00
# # energies =    67
#    E           xs
 1.00000E-11 0.00000E+00
 2.53000E-08 0.00000E+00
 2.00000E-07 0.00000E+00
 1.00000E-06 0.00000E+00
 1.00000E-03 0.00000E+00
 2.00000E-03 0.00000E+00
 5.00000E-03 0.00000E+00
 1.00000E-02 0.00000E+00
 2.00000E-02 0.00000E+00
 5.00000E-02 0.00000E+00
 1.00000E-01 0.00000E+00
 2.00000E-01 0.00000E+00
 3.00000E-01 0.00000E+00
 4.00000E-01 0.00000E+00
 5.00000E-01 0.00000E+00
 7.50000E-01 0.00000E+00
 1.00000E+00 0.00000E+00
 1.20000E+00 0.00000E+00
 1.40000E+00 0.00000E+00
 1.60000E+00 0.00000E+00
 1.80000E+00 0.00000E+00
 2.00000E+00 0.00000E+00
 2.20000E+00 0.00000E+00
 2.40000E+00 0.00000E+00
 2.60000E+00 0.00000E+00
 2.80000E+00 0.00000E+00
 3.00000E+00 0.00000E+00
 3.20000E+00 0.00000E+00
 3.40000E+00 0.00000E+00
 3.60000E+00 0.00000E+00
 3.80000E+00 0.00000E+00
 4.00000E+00 0.00000E+00
 4.20000E+00 0.00000E+00
 4.40000E+00 3.58812E+00
 4.60000E+00 5.08725E+00
 4.80000E+00 5.90850E+00
 5.00000E+00 6.18656E+00
 5.50000E+00 5.96112E+00
 6.00000E+00 5.59018E+00
 6.50000E+00 5.31927E+00
 7.00000E+00 5.16717E+00
 7.50000E+00 5.14883E+00
 8.00000E+00 5.04827E+00
 8.50000E+00 4.61947E+00
 9.00000E+00 3.89248E+00
 9.50000E+00 3.08004E+00
 1.00000E+01 2.32968E+00
 1.10000E+01 1.26451E+00
 1.20000E+01 7.52296E-01
 1.30000E+01 5.30366E-01
 1.40000E+01 4.33166E-01
 1.50000E+01 3.84317E-01
 1.60000E+01 3.52713E-01
 1.70000E+01 3.33173E-01
 1.80000E+01 3.11404E-01
 1.90000E+01 2.93186E-01
 2.00000E+01 2.78189E-01
 2.10000E+01 2.64500E-01
 2.20000E+01 2.50814E-01
 2.30000E+01 2.38380E-01
 2.40000E+01 2.26117E-01
 2.50000E+01 2.12651E-01
 2.60000E+01 2.01324E-01
 2.70000E+01 1.92978E-01
 2.80000E+01 1.84228E-01
 2.90000E+01 1.77210E-01
 3.00000E+01 1.70269E-01
