# n + 208Pb: Gamma-ray intensity - 208Pb: Level 12 --> Level  0 - gamma energy    4.085400
# E-initial  =   4.085400 E-final=   0.000000
# E-threshold= 4.10521E+00
# # energies = 67
#    E         xs
 1.000E-11 0.00000E+00
 2.530E-08 0.00000E+00
 2.000E-07 0.00000E+00
 1.000E-06 0.00000E+00
 1.000E-03 0.00000E+00
 2.000E-03 0.00000E+00
 5.000E-03 0.00000E+00
 1.000E-02 0.00000E+00
 2.000E-02 0.00000E+00
 5.000E-02 0.00000E+00
 1.000E-01 0.00000E+00
 2.000E-01 0.00000E+00
 3.000E-01 0.00000E+00
 4.000E-01 0.00000E+00
 5.000E-01 0.00000E+00
 7.500E-01 0.00000E+00
 1.000E+00 0.00000E+00
 1.200E+00 0.00000E+00
 1.400E+00 0.00000E+00
 1.600E+00 0.00000E+00
 1.800E+00 0.00000E+00
 2.000E+00 0.00000E+00
 2.200E+00 0.00000E+00
 2.400E+00 0.00000E+00
 2.600E+00 0.00000E+00
 2.800E+00 0.00000E+00
 3.000E+00 0.00000E+00
 3.200E+00 0.00000E+00
 3.400E+00 0.00000E+00
 3.600E+00 0.00000E+00
 3.800E+00 0.00000E+00
 4.000E+00 0.00000E+00
 4.200E+00 3.88248E+01
 4.400E+00 8.43151E+01
 4.600E+00 1.02741E+02
 4.800E+00 1.11167E+02
 5.000E+00 1.16768E+02
 5.500E+00 1.27560E+02
 6.000E+00 1.29848E+02
 6.500E+00 1.22868E+02
 7.000E+00 1.13610E+02
 7.500E+00 1.05958E+02
 8.000E+00 9.43262E+01
 8.500E+00 8.06032E+01
 9.000E+00 6.73035E+01
 9.500E+00 5.58209E+01
 1.000E+01 4.58451E+01
 1.100E+01 3.29655E+01
 1.200E+01 2.68819E+01
 1.300E+01 2.37944E+01
 1.400E+01 2.20529E+01
 1.500E+01 2.05948E+01
 1.600E+01 1.93946E+01
 1.700E+01 1.84632E+01
 1.800E+01 1.74992E+01
 1.900E+01 1.65297E+01
 2.000E+01 1.58274E+01
 2.100E+01 1.50006E+01
 2.200E+01 1.44850E+01
 2.300E+01 1.38147E+01
 2.400E+01 1.33630E+01
 2.500E+01 1.28771E+01
 2.600E+01 1.23232E+01
 2.700E+01 1.19198E+01
 2.800E+01 1.15455E+01
 2.900E+01 1.12197E+01
 3.000E+01 1.08185E+01
