# n + 208Pb: Gamma-ray intensity - 208Pb: Level  5 --> Level  4 - gamma energy    0.211360
# E-initial  =   3.919800 E-final=   3.708440
# E-threshold= 3.93881E+00
# # energies = 67
#    E         xs
 1.000E-11 0.00000E+00
 2.530E-08 0.00000E+00
 2.000E-07 0.00000E+00
 1.000E-06 0.00000E+00
 1.000E-03 0.00000E+00
 2.000E-03 0.00000E+00
 5.000E-03 0.00000E+00
 1.000E-02 0.00000E+00
 2.000E-02 0.00000E+00
 5.000E-02 0.00000E+00
 1.000E-01 0.00000E+00
 2.000E-01 0.00000E+00
 3.000E-01 0.00000E+00
 4.000E-01 0.00000E+00
 5.000E-01 0.00000E+00
 7.500E-01 0.00000E+00
 1.000E+00 0.00000E+00
 1.200E+00 0.00000E+00
 1.400E+00 0.00000E+00
 1.600E+00 0.00000E+00
 1.800E+00 0.00000E+00
 2.000E+00 0.00000E+00
 2.200E+00 0.00000E+00
 2.400E+00 0.00000E+00
 2.600E+00 0.00000E+00
 2.800E+00 0.00000E+00
 3.000E+00 0.00000E+00
 3.200E+00 0.00000E+00
 3.400E+00 0.00000E+00
 3.600E+00 0.00000E+00
 3.800E+00 0.00000E+00
 4.000E+00 1.47180E+01
 4.200E+00 3.61878E+01
 4.400E+00 6.12438E+01
 4.600E+00 7.60298E+01
 4.800E+00 8.41784E+01
 5.000E+00 8.85873E+01
 5.500E+00 9.45928E+01
 6.000E+00 1.00661E+02
 6.500E+00 1.08666E+02
 7.000E+00 1.18920E+02
 7.500E+00 1.31229E+02
 8.000E+00 1.42557E+02
 8.500E+00 1.48632E+02
 9.000E+00 1.44756E+02
 9.500E+00 1.31106E+02
 1.000E+01 1.12141E+02
 1.100E+01 7.32410E+01
 1.200E+01 4.59393E+01
 1.300E+01 3.19990E+01
 1.400E+01 2.49229E+01
 1.500E+01 2.15027E+01
 1.600E+01 1.96139E+01
 1.700E+01 1.86308E+01
 1.800E+01 1.74002E+01
 1.900E+01 1.66100E+01
 2.000E+01 1.57509E+01
 2.100E+01 1.49874E+01
 2.200E+01 1.43009E+01
 2.300E+01 1.38167E+01
 2.400E+01 1.29733E+01
 2.500E+01 1.24685E+01
 2.600E+01 1.17179E+01
 2.700E+01 1.12831E+01
 2.800E+01 1.09658E+01
 2.900E+01 1.02837E+01
 3.000E+01 9.94438E+00
