# n + 208Pb: Gamma-ray intensity - 208Pb: Level 14 --> Level  3 - gamma energy    0.705336
# E-initial  =   4.180414 E-final=   3.475078
# E-threshold= 4.20069E+00
# # energies =    67
#    E           xs
 1.00000E-11 0.00000E+00
 2.53000E-08 0.00000E+00
 2.00000E-07 0.00000E+00
 1.00000E-06 0.00000E+00
 1.00000E-03 0.00000E+00
 2.00000E-03 0.00000E+00
 5.00000E-03 0.00000E+00
 1.00000E-02 0.00000E+00
 2.00000E-02 0.00000E+00
 5.00000E-02 0.00000E+00
 1.00000E-01 0.00000E+00
 2.00000E-01 0.00000E+00
 3.00000E-01 0.00000E+00
 4.00000E-01 0.00000E+00
 5.00000E-01 0.00000E+00
 7.50000E-01 0.00000E+00
 1.00000E+00 0.00000E+00
 1.20000E+00 0.00000E+00
 1.40000E+00 0.00000E+00
 1.60000E+00 0.00000E+00
 1.80000E+00 0.00000E+00
 2.00000E+00 0.00000E+00
 2.20000E+00 0.00000E+00
 2.40000E+00 0.00000E+00
 2.60000E+00 0.00000E+00
 2.80000E+00 0.00000E+00
 3.00000E+00 0.00000E+00
 3.20000E+00 0.00000E+00
 3.40000E+00 0.00000E+00
 3.60000E+00 0.00000E+00
 3.80000E+00 0.00000E+00
 4.00000E+00 0.00000E+00
 4.20000E+00 0.00000E+00
 4.40000E+00 3.58812E+00
 4.60000E+00 5.08725E+00
 4.80000E+00 5.90851E+00
 5.00000E+00 6.18657E+00
 5.50000E+00 5.96119E+00
 6.00000E+00 5.59028E+00
 6.50000E+00 5.31939E+00
 7.00000E+00 5.16727E+00
 7.50000E+00 5.14891E+00
 8.00000E+00 5.04834E+00
 8.50000E+00 4.61956E+00
 9.00000E+00 3.89260E+00
 9.50000E+00 3.08018E+00
 1.00000E+01 2.32982E+00
 1.10000E+01 1.26461E+00
 1.20000E+01 7.52348E-01
 1.30000E+01 5.30392E-01
 1.40000E+01 4.33178E-01
 1.50000E+01 3.84323E-01
 1.60000E+01 3.52716E-01
 1.70000E+01 3.33175E-01
 1.80000E+01 3.11405E-01
 1.90000E+01 2.93243E-01
 2.00000E+01 2.78191E-01
 2.10000E+01 2.64501E-01
 2.20000E+01 2.50816E-01
 2.30000E+01 2.38382E-01
 2.40000E+01 2.26119E-01
 2.50000E+01 2.12653E-01
 2.60000E+01 2.01326E-01
 2.70000E+01 1.92981E-01
 2.80000E+01 1.84230E-01
 2.90000E+01 1.77212E-01
 3.00000E+01 1.70272E-01
