# n + 208Pb: Gamma-ray intensity - 208Pb: Level 28 --> Level  0 - gamma energy    4.698320
# E-initial  =   4.698320 E-final=   0.000000
# E-threshold= 4.72111E+00
# # energies = 67
#    E         xs
 1.000E-11 0.00000E+00
 2.530E-08 0.00000E+00
 2.000E-07 0.00000E+00
 1.000E-06 0.00000E+00
 1.000E-03 0.00000E+00
 2.000E-03 0.00000E+00
 5.000E-03 0.00000E+00
 1.000E-02 0.00000E+00
 2.000E-02 0.00000E+00
 5.000E-02 0.00000E+00
 1.000E-01 0.00000E+00
 2.000E-01 0.00000E+00
 3.000E-01 0.00000E+00
 4.000E-01 0.00000E+00
 5.000E-01 0.00000E+00
 7.500E-01 0.00000E+00
 1.000E+00 0.00000E+00
 1.200E+00 0.00000E+00
 1.400E+00 0.00000E+00
 1.600E+00 0.00000E+00
 1.800E+00 0.00000E+00
 2.000E+00 0.00000E+00
 2.200E+00 0.00000E+00
 2.400E+00 0.00000E+00
 2.600E+00 0.00000E+00
 2.800E+00 0.00000E+00
 3.000E+00 0.00000E+00
 3.200E+00 0.00000E+00
 3.400E+00 0.00000E+00
 3.600E+00 0.00000E+00
 3.800E+00 0.00000E+00
 4.000E+00 0.00000E+00
 4.200E+00 0.00000E+00
 4.400E+00 0.00000E+00
 4.600E+00 0.00000E+00
 4.800E+00 2.70619E-01
 5.000E+00 5.66272E-01
 5.500E+00 7.93697E-01
 6.000E+00 7.12141E-01
 6.500E+00 6.33404E-01
 7.000E+00 5.71758E-01
 7.500E+00 5.16681E-01
 8.000E+00 4.42153E-01
 8.500E+00 3.53136E-01
 9.000E+00 2.73367E-01
 9.500E+00 2.02254E-01
 1.000E+01 1.46272E-01
 1.100E+01 7.68299E-02
 1.200E+01 4.50740E-02
 1.300E+01 3.04354E-02
 1.400E+01 2.42620E-02
 1.500E+01 2.10678E-02
 1.600E+01 1.93032E-02
 1.700E+01 1.85335E-02
 1.800E+01 1.74227E-02
 1.900E+01 1.64049E-02
 2.000E+01 1.59954E-02
 2.100E+01 1.54845E-02
 2.200E+01 1.47041E-02
 2.300E+01 1.43249E-02
 2.400E+01 1.37788E-02
 2.500E+01 1.30884E-02
 2.600E+01 1.26692E-02
 2.700E+01 1.24074E-02
 2.800E+01 1.21054E-02
 2.900E+01 1.16865E-02
 3.000E+01 1.14136E-02
