# n + 208Pb: Gamma-ray intensity - 208Pb: Level  3 --> Level  2 - gamma energy    0.277370
# E-initial  =   3.475080 E-final=   3.197710
# E-threshold= 3.49193E+00
# # energies = 67
#    E         xs
 1.000E-11 0.00000E+00
 2.530E-08 0.00000E+00
 2.000E-07 0.00000E+00
 1.000E-06 0.00000E+00
 1.000E-03 0.00000E+00
 2.000E-03 0.00000E+00
 5.000E-03 0.00000E+00
 1.000E-02 0.00000E+00
 2.000E-02 0.00000E+00
 5.000E-02 0.00000E+00
 1.000E-01 0.00000E+00
 2.000E-01 0.00000E+00
 3.000E-01 0.00000E+00
 4.000E-01 0.00000E+00
 5.000E-01 0.00000E+00
 7.500E-01 0.00000E+00
 1.000E+00 0.00000E+00
 1.200E+00 0.00000E+00
 1.400E+00 0.00000E+00
 1.600E+00 0.00000E+00
 1.800E+00 0.00000E+00
 2.000E+00 0.00000E+00
 2.200E+00 0.00000E+00
 2.400E+00 0.00000E+00
 2.600E+00 0.00000E+00
 2.800E+00 0.00000E+00
 3.000E+00 0.00000E+00
 3.200E+00 0.00000E+00
 3.400E+00 0.00000E+00
 3.600E+00 2.44568E+01
 3.800E+00 5.00961E+01
 4.000E+00 6.88199E+01
 4.200E+00 7.77456E+01
 4.400E+00 8.32302E+01
 4.600E+00 8.78256E+01
 4.800E+00 9.18034E+01
 5.000E+00 9.43302E+01
 5.500E+00 9.29312E+01
 6.000E+00 8.72029E+01
 6.500E+00 8.27868E+01
 7.000E+00 8.00252E+01
 7.500E+00 7.83071E+01
 8.000E+00 7.35397E+01
 8.500E+00 6.44570E+01
 9.000E+00 5.35494E+01
 9.500E+00 4.22402E+01
 1.000E+01 3.23541E+01
 1.100E+01 1.83640E+01
 1.200E+01 1.14019E+01
 1.300E+01 8.13309E+00
 1.400E+01 6.64200E+00
 1.500E+01 5.84950E+00
 1.600E+01 5.32818E+00
 1.700E+01 4.99386E+00
 1.800E+01 4.64188E+00
 1.900E+01 4.35295E+00
 2.000E+01 4.11868E+00
 2.100E+01 3.90354E+00
 2.200E+01 3.68211E+00
 2.300E+01 3.50051E+00
 2.400E+01 3.32050E+00
 2.500E+01 3.08587E+00
 2.600E+01 2.90241E+00
 2.700E+01 2.78649E+00
 2.800E+01 2.68477E+00
 2.900E+01 2.58961E+00
 3.000E+01 2.49739E+00
