# n + 208Pb: Gamma-ray intensity - 209Pb: Level  5 --> Level  4 - gamma energy    0.117210
# E-initial  =   2.149430 E-final=   2.032220
# E-threshold= 0.00000E+00
# # energies =    67
#    E           xs
 1.00000E-11 0.00000E+00
 2.53000E-08 0.00000E+00
 2.00000E-07 0.00000E+00
 1.00000E-06 7.84927E+01
 1.00000E-03 1.59113E-01
 2.00000E-03 9.39330E-02
 5.00000E-03 5.01424E-02
 1.00000E-02 2.93093E-02
 2.00000E-02 1.61182E-02
 5.00000E-02 7.24612E-03
 1.00000E-01 4.14400E-03
 2.00000E-01 2.60241E-03
 3.00000E-01 2.14473E-03
 4.00000E-01 1.97213E-03
 5.00000E-01 1.92211E-03
 7.50000E-01 2.04371E-03
 1.00000E+00 2.36980E-03
 1.20000E+00 2.74202E-03
 1.40000E+00 3.20197E-03
 1.60000E+00 3.78202E-03
 1.80000E+00 4.47893E-03
 2.00000E+00 5.30648E-03
 2.20000E+00 6.34789E-03
 2.40000E+00 7.58313E-03
 2.60000E+00 8.93861E-03
 2.80000E+00 9.11883E-03
 3.00000E+00 9.47528E-03
 3.20000E+00 1.03150E-02
 3.40000E+00 1.09811E-02
 3.60000E+00 1.19941E-02
 3.80000E+00 1.25512E-02
 4.00000E+00 1.34138E-02
 4.20000E+00 1.27472E-02
 4.40000E+00 1.03048E-02
 4.60000E+00 8.97270E-03
 4.80000E+00 9.16468E-03
 5.00000E+00 8.33802E-03
 5.50000E+00 6.72764E-03
 6.00000E+00 5.98240E-03
 6.50000E+00 6.22757E-03
 7.00000E+00 7.39438E-03
 7.50000E+00 9.60533E-03
 8.00000E+00 1.38736E-02
 8.50000E+00 2.13244E-02
 9.00000E+00 3.35253E-02
 9.50000E+00 5.15388E-02
 1.00000E+01 6.93464E-02
 1.10000E+01 6.84929E-02
 1.20000E+01 4.61300E-02
 1.30000E+01 3.12563E-02
 1.40000E+01 2.31490E-02
 1.50000E+01 1.86322E-02
 1.60000E+01 1.58300E-02
 1.70000E+01 1.49011E-02
 1.80000E+01 1.37077E-02
 1.90000E+01 1.31833E-02
 2.00000E+01 1.23076E-02
 2.10000E+01 1.11477E-02
 2.20000E+01 9.98569E-03
 2.30000E+01 9.48877E-03
 2.40000E+01 8.52431E-03
 2.50000E+01 8.10227E-03
 2.60000E+01 7.53780E-03
 2.70000E+01 7.24846E-03
 2.80000E+01 6.92819E-03
 2.90000E+01 6.60894E-03
 3.00000E+01 6.42292E-03
