# n + 208Pb: Gamma-ray intensity - 208Pb: Level 12 --> Level  0 - gamma energy    4.085400
# E-initial  =   4.085400 E-final=   0.000000
# E-threshold= 4.10521E+00
# # energies = 67
#    E         xs
 1.000E-11 0.00000E+00
 2.530E-08 0.00000E+00
 2.000E-07 0.00000E+00
 1.000E-06 0.00000E+00
 1.000E-03 0.00000E+00
 2.000E-03 0.00000E+00
 5.000E-03 0.00000E+00
 1.000E-02 0.00000E+00
 2.000E-02 0.00000E+00
 5.000E-02 0.00000E+00
 1.000E-01 0.00000E+00
 2.000E-01 0.00000E+00
 3.000E-01 0.00000E+00
 4.000E-01 0.00000E+00
 5.000E-01 0.00000E+00
 7.500E-01 0.00000E+00
 1.000E+00 0.00000E+00
 1.200E+00 0.00000E+00
 1.400E+00 0.00000E+00
 1.600E+00 0.00000E+00
 1.800E+00 0.00000E+00
 2.000E+00 0.00000E+00
 2.200E+00 0.00000E+00
 2.400E+00 0.00000E+00
 2.600E+00 0.00000E+00
 2.800E+00 0.00000E+00
 3.000E+00 0.00000E+00
 3.200E+00 0.00000E+00
 3.400E+00 0.00000E+00
 3.600E+00 0.00000E+00
 3.800E+00 0.00000E+00
 4.000E+00 0.00000E+00
 4.200E+00 3.87949E+01
 4.400E+00 8.10123E+01
 4.600E+00 9.08427E+01
 4.800E+00 9.17008E+01
 5.000E+00 9.14764E+01
 5.500E+00 9.03081E+01
 6.000E+00 8.54506E+01
 6.500E+00 7.87474E+01
 7.000E+00 7.30945E+01
 7.500E+00 6.87467E+01
 8.000E+00 5.99061E+01
 8.500E+00 4.94514E+01
 9.000E+00 4.06037E+01
 9.500E+00 3.39836E+01
 1.000E+01 2.88162E+01
 1.100E+01 2.30544E+01
 1.200E+01 2.06583E+01
 1.300E+01 1.93570E+01
 1.400E+01 1.83983E+01
 1.500E+01 1.74726E+01
 1.600E+01 1.66175E+01
 1.700E+01 1.58794E+01
 1.800E+01 1.51441E+01
 1.900E+01 1.44009E+01
 2.000E+01 1.37823E+01
 2.100E+01 1.31571E+01
 2.200E+01 1.26666E+01
 2.300E+01 1.21770E+01
 2.400E+01 1.18004E+01
 2.500E+01 1.14200E+01
 2.600E+01 1.10110E+01
 2.700E+01 1.06724E+01
 2.800E+01 1.03420E+01
 2.900E+01 1.00508E+01
 3.000E+01 9.73664E+00
