# n + 208Pb: Gamma-ray intensity - 208Pb: Level  4 --> Level  1 - gamma energy    1.093890
# E-initial  =   3.708440 E-final=   2.614550
# E-threshold= 3.72643E+00
# # energies = 67
#    E         xs
 1.000E-11 0.00000E+00
 2.530E-08 0.00000E+00
 2.000E-07 0.00000E+00
 1.000E-06 0.00000E+00
 1.000E-03 0.00000E+00
 2.000E-03 0.00000E+00
 5.000E-03 0.00000E+00
 1.000E-02 0.00000E+00
 2.000E-02 0.00000E+00
 5.000E-02 0.00000E+00
 1.000E-01 0.00000E+00
 2.000E-01 0.00000E+00
 3.000E-01 0.00000E+00
 4.000E-01 0.00000E+00
 5.000E-01 0.00000E+00
 7.500E-01 0.00000E+00
 1.000E+00 0.00000E+00
 1.200E+00 0.00000E+00
 1.400E+00 0.00000E+00
 1.600E+00 0.00000E+00
 1.800E+00 0.00000E+00
 2.000E+00 0.00000E+00
 2.200E+00 0.00000E+00
 2.400E+00 0.00000E+00
 2.600E+00 0.00000E+00
 2.800E+00 0.00000E+00
 3.000E+00 0.00000E+00
 3.200E+00 0.00000E+00
 3.400E+00 0.00000E+00
 3.600E+00 0.00000E+00
 3.800E+00 6.36343E-01
 4.000E+00 1.66325E+00
 4.200E+00 2.53346E+00
 4.400E+00 2.95187E+00
 4.600E+00 3.03901E+00
 4.800E+00 3.03732E+00
 5.000E+00 3.06140E+00
 5.500E+00 3.30179E+00
 6.000E+00 3.65587E+00
 6.500E+00 4.05755E+00
 7.000E+00 4.49588E+00
 7.500E+00 4.95055E+00
 8.000E+00 5.30431E+00
 8.500E+00 5.35701E+00
 9.000E+00 5.03612E+00
 9.500E+00 4.39753E+00
 1.000E+01 3.63523E+00
 1.100E+01 2.32525E+00
 1.200E+01 1.54261E+00
 1.300E+01 1.18575E+00
 1.400E+01 1.01669E+00
 1.500E+01 9.35782E-01
 1.600E+01 8.83896E-01
 1.700E+01 8.57272E-01
 1.800E+01 8.16419E-01
 1.900E+01 7.85398E-01
 2.000E+01 7.52589E-01
 2.100E+01 7.22339E-01
 2.200E+01 6.92838E-01
 2.300E+01 6.68900E-01
 2.400E+01 6.34834E-01
 2.500E+01 6.08583E-01
 2.600E+01 5.78309E-01
 2.700E+01 5.56348E-01
 2.800E+01 5.39719E-01
 2.900E+01 5.12341E-01
 3.000E+01 4.95377E-01
