# n + 208Pb: Gamma-ray intensity - 208Pb: Level  5 --> Level  2 - gamma energy    0.722260
# E-initial  =   3.919970 E-final=   3.197710
# E-threshold= 3.93898E+00
# # energies = 67
#    E         xs
 1.000E-11 0.00000E+00
 2.530E-08 0.00000E+00
 2.000E-07 0.00000E+00
 1.000E-06 0.00000E+00
 1.000E-03 0.00000E+00
 2.000E-03 0.00000E+00
 5.000E-03 0.00000E+00
 1.000E-02 0.00000E+00
 2.000E-02 0.00000E+00
 5.000E-02 0.00000E+00
 1.000E-01 0.00000E+00
 2.000E-01 0.00000E+00
 3.000E-01 0.00000E+00
 4.000E-01 0.00000E+00
 5.000E-01 0.00000E+00
 7.500E-01 0.00000E+00
 1.000E+00 0.00000E+00
 1.200E+00 0.00000E+00
 1.400E+00 0.00000E+00
 1.600E+00 0.00000E+00
 1.800E+00 0.00000E+00
 2.000E+00 0.00000E+00
 2.200E+00 0.00000E+00
 2.400E+00 0.00000E+00
 2.600E+00 0.00000E+00
 2.800E+00 0.00000E+00
 3.000E+00 0.00000E+00
 3.200E+00 0.00000E+00
 3.400E+00 0.00000E+00
 3.600E+00 0.00000E+00
 3.800E+00 0.00000E+00
 4.000E+00 6.83248E+00
 4.200E+00 1.45016E+01
 4.400E+00 1.82884E+01
 4.600E+00 2.00397E+01
 4.800E+00 2.12600E+01
 5.000E+00 2.28156E+01
 5.500E+00 2.73593E+01
 6.000E+00 3.18420E+01
 6.500E+00 3.70034E+01
 7.000E+00 4.30653E+01
 7.500E+00 4.95945E+01
 8.000E+00 5.56434E+01
 8.500E+00 5.95401E+01
 9.000E+00 5.89581E+01
 9.500E+00 5.41705E+01
 1.000E+01 4.65691E+01
 1.100E+01 3.05658E+01
 1.200E+01 1.91965E+01
 1.300E+01 1.32263E+01
 1.400E+01 1.03638E+01
 1.500E+01 8.97509E+00
 1.600E+01 8.22587E+00
 1.700E+01 7.78572E+00
 1.800E+01 7.31589E+00
 1.900E+01 6.91270E+00
 2.000E+01 6.66150E+00
 2.100E+01 6.35555E+00
 2.200E+01 6.05111E+00
 2.300E+01 5.80817E+00
 2.400E+01 5.53430E+00
 2.500E+01 5.16784E+00
 2.600E+01 4.90293E+00
 2.700E+01 4.65432E+00
 2.800E+01 4.45744E+00
 2.900E+01 4.28678E+00
 3.000E+01 4.12605E+00
