# n + 208Pb: Gamma-ray intensity - 208Pb: Level 12 --> Level  3 - gamma energy    0.650270
# E-initial  =   4.125350 E-final=   3.475080
# E-threshold= 4.14536E+00
# # energies = 67
#    E         xs
 1.000E-11 0.00000E+00
 2.530E-08 0.00000E+00
 2.000E-07 0.00000E+00
 1.000E-06 0.00000E+00
 1.000E-03 0.00000E+00
 2.000E-03 0.00000E+00
 5.000E-03 0.00000E+00
 1.000E-02 0.00000E+00
 2.000E-02 0.00000E+00
 5.000E-02 0.00000E+00
 1.000E-01 0.00000E+00
 2.000E-01 0.00000E+00
 3.000E-01 0.00000E+00
 4.000E-01 0.00000E+00
 5.000E-01 0.00000E+00
 7.500E-01 0.00000E+00
 1.000E+00 0.00000E+00
 1.200E+00 0.00000E+00
 1.400E+00 0.00000E+00
 1.600E+00 0.00000E+00
 1.800E+00 0.00000E+00
 2.000E+00 0.00000E+00
 2.200E+00 0.00000E+00
 2.400E+00 0.00000E+00
 2.600E+00 0.00000E+00
 2.800E+00 0.00000E+00
 3.000E+00 0.00000E+00
 3.200E+00 0.00000E+00
 3.400E+00 0.00000E+00
 3.600E+00 0.00000E+00
 3.800E+00 0.00000E+00
 4.000E+00 0.00000E+00
 4.200E+00 3.72811E+00
 4.400E+00 8.40527E+00
 4.600E+00 1.10449E+01
 4.800E+00 1.24587E+01
 5.000E+00 1.29628E+01
 5.500E+00 1.28032E+01
 6.000E+00 1.23733E+01
 6.500E+00 1.20462E+01
 7.000E+00 1.19104E+01
 7.500E+00 1.19966E+01
 8.000E+00 1.19186E+01
 8.500E+00 1.12415E+01
 9.000E+00 9.96443E+00
 9.500E+00 8.43718E+00
 1.000E+01 6.93732E+00
 1.100E+01 4.62222E+00
 1.200E+01 3.37700E+00
 1.300E+01 2.76787E+00
 1.400E+01 2.45559E+00
 1.500E+01 2.26340E+00
 1.600E+01 2.12380E+00
 1.700E+01 2.01947E+00
 1.800E+01 1.92437E+00
 1.900E+01 1.84266E+00
 2.000E+01 1.77126E+00
 2.100E+01 1.70018E+00
 2.200E+01 1.63009E+00
 2.300E+01 1.56381E+00
 2.400E+01 1.50032E+00
 2.500E+01 1.43719E+00
 2.600E+01 1.37940E+00
 2.700E+01 1.33458E+00
 2.800E+01 1.29244E+00
 2.900E+01 1.25290E+00
 3.000E+01 1.21372E+00
