# n + 208Pb: Gamma-ray intensity - 208Pb: Level 11 --> Level  1 - gamma energy    1.471000
# E-initial  =   4.085520 E-final=   2.614520
# E-threshold= 4.10533E+00
# # energies = 67
#    E         xs
 1.000E-11 0.00000E+00
 2.530E-08 0.00000E+00
 2.000E-07 0.00000E+00
 1.000E-06 0.00000E+00
 1.000E-03 0.00000E+00
 2.000E-03 0.00000E+00
 5.000E-03 0.00000E+00
 1.000E-02 0.00000E+00
 2.000E-02 0.00000E+00
 5.000E-02 0.00000E+00
 1.000E-01 0.00000E+00
 2.000E-01 0.00000E+00
 3.000E-01 0.00000E+00
 4.000E-01 0.00000E+00
 5.000E-01 0.00000E+00
 7.500E-01 0.00000E+00
 1.000E+00 0.00000E+00
 1.200E+00 0.00000E+00
 1.400E+00 0.00000E+00
 1.600E+00 0.00000E+00
 1.800E+00 0.00000E+00
 2.000E+00 0.00000E+00
 2.200E+00 0.00000E+00
 2.400E+00 0.00000E+00
 2.600E+00 0.00000E+00
 2.800E+00 0.00000E+00
 3.000E+00 0.00000E+00
 3.200E+00 0.00000E+00
 3.400E+00 0.00000E+00
 3.600E+00 0.00000E+00
 3.800E+00 0.00000E+00
 4.000E+00 0.00000E+00
 4.200E+00 1.82989E-01
 4.400E+00 3.97904E-01
 4.600E+00 4.80276E-01
 4.800E+00 5.03816E-01
 5.000E+00 5.08920E-01
 5.500E+00 5.24880E-01
 6.000E+00 5.25761E-01
 6.500E+00 4.83335E-01
 7.000E+00 4.31949E-01
 7.500E+00 3.92698E-01
 8.000E+00 3.36743E-01
 8.500E+00 2.70453E-01
 9.000E+00 2.13015E-01
 9.500E+00 1.59327E-01
 1.000E+01 1.19882E-01
 1.100E+01 6.80666E-02
 1.200E+01 4.38583E-02
 1.300E+01 3.21799E-02
 1.400E+01 2.69980E-02
 1.500E+01 2.39534E-02
 1.600E+01 2.17150E-02
 1.700E+01 2.05853E-02
 1.800E+01 1.88757E-02
 1.900E+01 1.76064E-02
 2.000E+01 1.65402E-02
 2.100E+01 1.57526E-02
 2.200E+01 1.45467E-02
 2.300E+01 1.39015E-02
 2.400E+01 1.32611E-02
 2.500E+01 1.20144E-02
 2.600E+01 1.12312E-02
 2.700E+01 1.08240E-02
 2.800E+01 1.05094E-02
 2.900E+01 1.00250E-02
 3.000E+01 9.65217E-03
