# n + 208Pb: Gamma-ray intensity - 208Pb: Level 10 --> Level  3 - gamma energy    0.576056
# E-initial  =   4.051134 E-final=   3.475078
# E-threshold= 4.07078E+00
# # energies =    67
#    E           xs
 1.00000E-11 0.00000E+00
 2.53000E-08 0.00000E+00
 2.00000E-07 0.00000E+00
 1.00000E-06 0.00000E+00
 1.00000E-03 0.00000E+00
 2.00000E-03 0.00000E+00
 5.00000E-03 0.00000E+00
 1.00000E-02 0.00000E+00
 2.00000E-02 0.00000E+00
 5.00000E-02 0.00000E+00
 1.00000E-01 0.00000E+00
 2.00000E-01 0.00000E+00
 3.00000E-01 0.00000E+00
 4.00000E-01 0.00000E+00
 5.00000E-01 0.00000E+00
 7.50000E-01 0.00000E+00
 1.00000E+00 0.00000E+00
 1.20000E+00 0.00000E+00
 1.40000E+00 0.00000E+00
 1.60000E+00 0.00000E+00
 1.80000E+00 0.00000E+00
 2.00000E+00 0.00000E+00
 2.20000E+00 0.00000E+00
 2.40000E+00 0.00000E+00
 2.60000E+00 0.00000E+00
 2.80000E+00 0.00000E+00
 3.00000E+00 0.00000E+00
 3.20000E+00 0.00000E+00
 3.40000E+00 0.00000E+00
 3.60000E+00 0.00000E+00
 3.80000E+00 0.00000E+00
 4.00000E+00 0.00000E+00
 4.20000E+00 8.80715E+00
 4.40000E+00 1.39127E+01
 4.60000E+00 1.59198E+01
 4.80000E+00 1.63641E+01
 5.00000E+00 1.58508E+01
 5.50000E+00 1.37965E+01
 6.00000E+00 1.23029E+01
 6.50000E+00 1.12594E+01
 7.00000E+00 1.05361E+01
 7.50000E+00 1.00203E+01
 8.00000E+00 8.83101E+00
 8.50000E+00 7.08026E+00
 9.00000E+00 5.45092E+00
 9.50000E+00 3.97971E+00
 1.00000E+01 2.87264E+00
 1.10000E+01 1.53364E+00
 1.20000E+01 9.62116E-01
 1.30000E+01 7.11928E-01
 1.40000E+01 6.05201E-01
 1.50000E+01 5.43590E-01
 1.60000E+01 4.97330E-01
 1.70000E+01 4.74915E-01
 1.80000E+01 4.40993E-01
 1.90000E+01 4.14747E-01
 2.00000E+01 3.95040E-01
 2.10000E+01 3.79256E-01
 2.20000E+01 3.55375E-01
 2.30000E+01 3.40911E-01
 2.40000E+01 3.26099E-01
 2.50000E+01 3.03516E-01
 2.60000E+01 2.90933E-01
 2.70000E+01 2.82452E-01
 2.80000E+01 2.72795E-01
 2.90000E+01 2.61173E-01
 3.00000E+01 2.52570E-01
