# n + 208Pb: Gamma-ray intensity - 209Pb: Level 10 --> Level  3 - gamma energy    0.970910
# E-initial  =   2.538000 E-final=   1.567090
# E-threshold= 0.00000E+00
# # energies =    67
#    E           xs
 1.00000E-11 0.00000E+00
 2.53000E-08 0.00000E+00
 2.00000E-07 0.00000E+00
 1.00000E-06 8.16679E+00
 1.00000E-03 1.60274E-01
 2.00000E-03 8.74602E-02
 5.00000E-03 3.92789E-02
 1.00000E-02 2.11600E-02
 2.00000E-02 1.12386E-02
 5.00000E-02 6.41322E-03
 1.00000E-01 4.38544E-03
 2.00000E-01 3.03137E-03
 3.00000E-01 2.57625E-03
 4.00000E-01 2.40909E-03
 5.00000E-01 2.37454E-03
 7.50000E-01 2.57077E-03
 1.00000E+00 3.01213E-03
 1.20000E+00 3.50737E-03
 1.40000E+00 4.11297E-03
 1.60000E+00 4.87622E-03
 1.80000E+00 5.79343E-03
 2.00000E+00 6.88219E-03
 2.20000E+00 8.26635E-03
 2.40000E+00 9.87337E-03
 2.60000E+00 1.16604E-02
 2.80000E+00 1.07765E-02
 3.00000E+00 1.09671E-02
 3.20000E+00 1.17720E-02
 3.40000E+00 1.27006E-02
 3.60000E+00 1.39291E-02
 3.80000E+00 1.47199E-02
 4.00000E+00 1.59201E-02
 4.20000E+00 1.53851E-02
 4.40000E+00 1.26234E-02
 4.60000E+00 1.10857E-02
 4.80000E+00 1.03492E-02
 5.00000E+00 9.24609E-03
 5.50000E+00 7.09043E-03
 6.00000E+00 5.51749E-03
 6.50000E+00 4.68673E-03
 7.00000E+00 4.26375E-03
 7.50000E+00 4.20154E-03
 8.00000E+00 4.64341E-03
 8.50000E+00 5.58851E-03
 9.00000E+00 7.27862E-03
 9.50000E+00 1.02614E-02
 1.00000E+01 1.43763E-02
 1.10000E+01 1.97268E-02
 1.20000E+01 1.56524E-02
 1.30000E+01 1.04299E-02
 1.40000E+01 7.67058E-03
 1.50000E+01 6.63076E-03
 1.60000E+01 5.67803E-03
 1.70000E+01 6.10914E-03
 1.80000E+01 5.83608E-03
 1.90000E+01 5.92968E-03
 2.00000E+01 5.74670E-03
 2.10000E+01 5.09525E-03
 2.20000E+01 4.33096E-03
 2.30000E+01 4.04310E-03
 2.40000E+01 3.15944E-03
 2.50000E+01 2.93257E-03
 2.60000E+01 2.49549E-03
 2.70000E+01 2.37529E-03
 2.80000E+01 2.25886E-03
 2.90000E+01 2.10285E-03
 3.00000E+01 2.04162E-03
