# n + 208Pb: Gamma-ray intensity - 208Pb: Level  7 --> Level  3 - gamma energy    0.485850
# E-initial  =   3.960960 E-final=   3.475110
# E-threshold= 3.98017E+00
# # energies = 66
#    E         xs
 1.000E-11 0.00000E+00
 2.530E-08 0.00000E+00
 1.000E-06 0.00000E+00
 1.000E-03 0.00000E+00
 2.000E-03 0.00000E+00
 5.000E-03 0.00000E+00
 1.000E-02 0.00000E+00
 2.000E-02 0.00000E+00
 5.000E-02 0.00000E+00
 1.000E-01 0.00000E+00
 2.000E-01 0.00000E+00
 3.000E-01 0.00000E+00
 4.000E-01 0.00000E+00
 5.000E-01 0.00000E+00
 7.500E-01 0.00000E+00
 1.000E+00 0.00000E+00
 1.200E+00 0.00000E+00
 1.400E+00 0.00000E+00
 1.600E+00 0.00000E+00
 1.800E+00 0.00000E+00
 2.000E+00 0.00000E+00
 2.200E+00 0.00000E+00
 2.400E+00 0.00000E+00
 2.600E+00 0.00000E+00
 2.800E+00 0.00000E+00
 3.000E+00 0.00000E+00
 3.200E+00 0.00000E+00
 3.400E+00 0.00000E+00
 3.600E+00 0.00000E+00
 3.800E+00 0.00000E+00
 4.000E+00 2.49476E-01
 4.200E+00 7.99854E-01
 4.400E+00 1.02384E+00
 4.600E+00 1.10205E+00
 4.800E+00 1.10086E+00
 5.000E+00 1.07161E+00
 5.500E+00 9.94381E-01
 6.000E+00 9.45778E-01
 6.500E+00 9.25465E-01
 7.000E+00 9.32507E-01
 7.500E+00 9.59401E-01
 8.000E+00 9.65281E-01
 8.500E+00 9.01878E-01
 9.000E+00 7.72188E-01
 9.500E+00 6.22099E-01
 1.000E+01 4.80935E-01
 1.100E+01 2.77710E-01
 1.200E+01 1.78547E-01
 1.300E+01 1.35770E-01
 1.400E+01 1.16418E-01
 1.500E+01 1.06426E-01
 1.600E+01 9.97080E-02
 1.700E+01 9.52589E-02
 1.800E+01 9.01011E-02
 1.900E+01 8.57529E-02
 2.000E+01 8.19603E-02
 2.100E+01 7.85673E-02
 2.200E+01 7.49385E-02
 2.300E+01 7.19238E-02
 2.400E+01 6.82998E-02
 2.500E+01 6.53552E-02
 2.600E+01 6.24633E-02
 2.700E+01 5.99839E-02
 2.800E+01 5.78254E-02
 2.900E+01 5.55733E-02
 3.000E+01 5.33088E-02
