# n + 208Pb: Gamma-ray intensity - 208Pb: Level  6 --> Level  2 - gamma energy    0.748700
# E-initial  =   3.946440 E-final=   3.197740
# E-threshold= 3.96558E+00
# # energies = 67
#    E         xs
 1.000E-11 0.00000E+00
 2.530E-08 0.00000E+00
 2.000E-07 0.00000E+00
 1.000E-06 0.00000E+00
 1.000E-03 0.00000E+00
 2.000E-03 0.00000E+00
 5.000E-03 0.00000E+00
 1.000E-02 0.00000E+00
 2.000E-02 0.00000E+00
 5.000E-02 0.00000E+00
 1.000E-01 0.00000E+00
 2.000E-01 0.00000E+00
 3.000E-01 0.00000E+00
 4.000E-01 0.00000E+00
 5.000E-01 0.00000E+00
 7.500E-01 0.00000E+00
 1.000E+00 0.00000E+00
 1.200E+00 0.00000E+00
 1.400E+00 0.00000E+00
 1.600E+00 0.00000E+00
 1.800E+00 0.00000E+00
 2.000E+00 0.00000E+00
 2.200E+00 0.00000E+00
 2.400E+00 0.00000E+00
 2.600E+00 0.00000E+00
 2.800E+00 0.00000E+00
 3.000E+00 0.00000E+00
 3.200E+00 0.00000E+00
 3.400E+00 0.00000E+00
 3.600E+00 0.00000E+00
 3.800E+00 0.00000E+00
 4.000E+00 2.81928E+01
 4.200E+00 7.86214E+01
 4.400E+00 9.84750E+01
 4.600E+00 1.04148E+02
 4.800E+00 1.03431E+02
 5.000E+00 1.00611E+02
 5.500E+00 9.30135E+01
 6.000E+00 8.65693E+01
 6.500E+00 8.15460E+01
 7.000E+00 7.83407E+01
 7.500E+00 7.67226E+01
 8.000E+00 7.24347E+01
 8.500E+00 6.39523E+01
 9.000E+00 5.31262E+01
 9.500E+00 4.23666E+01
 1.000E+01 3.25471E+01
 1.100E+01 1.87104E+01
 1.200E+01 1.18151E+01
 1.300E+01 8.51300E+00
 1.400E+01 6.95056E+00
 1.500E+01 6.10837E+00
 1.600E+01 5.57764E+00
 1.700E+01 5.26898E+00
 1.800E+01 4.91743E+00
 1.900E+01 4.63122E+00
 2.000E+01 4.41049E+00
 2.100E+01 4.18716E+00
 2.200E+01 4.03565E+00
 2.300E+01 3.83286E+00
 2.400E+01 3.64397E+00
 2.500E+01 3.49689E+00
 2.600E+01 3.30677E+00
 2.700E+01 3.18139E+00
 2.800E+01 3.04088E+00
 2.900E+01 2.96948E+00
 3.000E+01 2.82518E+00
