# n + 208Pb: Gamma-ray intensity - 208Pb: Level 27 --> Level 15 - gamma energy    0.473990
# E-initial  =   4.680270 E-final=   4.206280
# E-threshold= 4.70297E+00
# # energies = 67
#    E         xs
 1.000E-11 0.00000E+00
 2.530E-08 0.00000E+00
 2.000E-07 0.00000E+00
 1.000E-06 0.00000E+00
 1.000E-03 0.00000E+00
 2.000E-03 0.00000E+00
 5.000E-03 0.00000E+00
 1.000E-02 0.00000E+00
 2.000E-02 0.00000E+00
 5.000E-02 0.00000E+00
 1.000E-01 0.00000E+00
 2.000E-01 0.00000E+00
 3.000E-01 0.00000E+00
 4.000E-01 0.00000E+00
 5.000E-01 0.00000E+00
 7.500E-01 0.00000E+00
 1.000E+00 0.00000E+00
 1.200E+00 0.00000E+00
 1.400E+00 0.00000E+00
 1.600E+00 0.00000E+00
 1.800E+00 0.00000E+00
 2.000E+00 0.00000E+00
 2.200E+00 0.00000E+00
 2.400E+00 0.00000E+00
 2.600E+00 0.00000E+00
 2.800E+00 0.00000E+00
 3.000E+00 0.00000E+00
 3.200E+00 0.00000E+00
 3.400E+00 0.00000E+00
 3.600E+00 0.00000E+00
 3.800E+00 0.00000E+00
 4.000E+00 0.00000E+00
 4.200E+00 0.00000E+00
 4.400E+00 0.00000E+00
 4.600E+00 0.00000E+00
 4.800E+00 2.49431E-01
 5.000E+00 1.05046E+00
 5.500E+00 2.68598E+00
 6.000E+00 3.56717E+00
 6.500E+00 4.52192E+00
 7.000E+00 5.54942E+00
 7.500E+00 6.55704E+00
 8.000E+00 7.53394E+00
 8.500E+00 8.32604E+00
 9.000E+00 8.54580E+00
 9.500E+00 8.08184E+00
 1.000E+01 7.09408E+00
 1.100E+01 4.77360E+00
 1.200E+01 2.99861E+00
 1.300E+01 2.04887E+00
 1.400E+01 1.58671E+00
 1.500E+01 1.36718E+00
 1.600E+01 1.25830E+00
 1.700E+01 1.19641E+00
 1.800E+01 1.13178E+00
 1.900E+01 1.07414E+00
 2.000E+01 1.04405E+00
 2.100E+01 1.00122E+00
 2.200E+01 9.57396E-01
 2.300E+01 9.25353E-01
 2.400E+01 8.84654E-01
 2.500E+01 8.41247E-01
 2.600E+01 8.07718E-01
 2.700E+01 7.71069E-01
 2.800E+01 7.42170E-01
 2.900E+01 7.16583E-01
 3.000E+01 6.92083E-01
