# n + 208Pb: Gamma-ray intensity - 208Pb: Level 18 --> Level  3 - gamma energy    0.786793
# E-initial  =   4.261871 E-final=   3.475078
# E-threshold= 4.28254E+00
# # energies =    67
#    E           xs
 1.00000E-11 0.00000E+00
 2.53000E-08 0.00000E+00
 2.00000E-07 0.00000E+00
 1.00000E-06 0.00000E+00
 1.00000E-03 0.00000E+00
 2.00000E-03 0.00000E+00
 5.00000E-03 0.00000E+00
 1.00000E-02 0.00000E+00
 2.00000E-02 0.00000E+00
 5.00000E-02 0.00000E+00
 1.00000E-01 0.00000E+00
 2.00000E-01 0.00000E+00
 3.00000E-01 0.00000E+00
 4.00000E-01 0.00000E+00
 5.00000E-01 0.00000E+00
 7.50000E-01 0.00000E+00
 1.00000E+00 0.00000E+00
 1.20000E+00 0.00000E+00
 1.40000E+00 0.00000E+00
 1.60000E+00 0.00000E+00
 1.80000E+00 0.00000E+00
 2.00000E+00 0.00000E+00
 2.20000E+00 0.00000E+00
 2.40000E+00 0.00000E+00
 2.60000E+00 0.00000E+00
 2.80000E+00 0.00000E+00
 3.00000E+00 0.00000E+00
 3.20000E+00 0.00000E+00
 3.40000E+00 0.00000E+00
 3.60000E+00 0.00000E+00
 3.80000E+00 0.00000E+00
 4.00000E+00 0.00000E+00
 4.20000E+00 0.00000E+00
 4.40000E+00 8.63717E+00
 4.60000E+00 1.49660E+01
 4.80000E+00 1.86509E+01
 5.00000E+00 1.99970E+01
 5.50000E+00 1.87613E+01
 6.00000E+00 1.66954E+01
 6.50000E+00 1.51383E+01
 7.00000E+00 1.39762E+01
 7.50000E+00 1.32401E+01
 8.00000E+00 1.20822E+01
 8.50000E+00 1.01796E+01
 9.00000E+00 8.06675E+00
 9.50000E+00 6.01881E+00
 1.00000E+01 4.34055E+00
 1.10000E+01 2.17459E+00
 1.20000E+01 1.22009E+00
 1.30000E+01 8.14404E-01
 1.40000E+01 6.42724E-01
 1.50000E+01 5.57490E-01
 1.60000E+01 5.02230E-01
 1.70000E+01 4.72954E-01
 1.80000E+01 4.35923E-01
 1.90000E+01 4.06120E-01
 2.00000E+01 3.82279E-01
 2.10000E+01 3.62221E-01
 2.20000E+01 3.39929E-01
 2.30000E+01 3.22812E-01
 2.40000E+01 3.04745E-01
 2.50000E+01 2.83110E-01
 2.60000E+01 2.66719E-01
 2.70000E+01 2.55973E-01
 2.80000E+01 2.42711E-01
 2.90000E+01 2.32791E-01
 3.00000E+01 2.23401E-01
