# n + 208Pb: Gamma-ray intensity - 209Pb: Level  8 --> Level  0 - gamma energy    2.463000
# E-initial  =   2.463000 E-final=   0.000000
# E-threshold= 0.00000E+00
# # energies = 67
#    E         xs
 1.000E-11 0.00000E+00
 2.530E-08 0.00000E+00
 2.000E-07 0.00000E+00
 1.000E-06 9.06953E-03
 1.000E-03 9.10430E-03
 2.000E-03 1.21514E-02
 5.000E-03 1.42571E-02
 1.000E-02 1.09092E-02
 2.000E-02 6.77462E-03
 5.000E-02 3.60336E-03
 1.000E-01 2.69249E-03
 2.000E-01 2.83879E-03
 3.000E-01 3.04561E-03
 4.000E-01 3.17908E-03
 5.000E-01 3.33199E-03
 7.500E-01 3.91562E-03
 1.000E+00 4.79400E-03
 1.200E+00 5.72931E-03
 1.400E+00 6.93257E-03
 1.600E+00 8.36329E-03
 1.800E+00 1.01576E-02
 2.000E+00 1.23414E-02
 2.200E+00 1.49593E-02
 2.400E+00 1.81057E-02
 2.600E+00 2.20696E-02
 2.800E+00 1.61934E-02
 3.000E+00 1.56494E-02
 3.200E+00 1.66397E-02
 3.400E+00 1.56911E-02
 3.600E+00 1.55644E-02
 3.800E+00 1.54744E-02
 4.000E+00 1.55588E-02
 4.200E+00 1.38472E-02
 4.400E+00 1.24398E-02
 4.600E+00 1.11527E-02
 4.800E+00 1.03890E-02
 5.000E+00 9.49865E-03
 5.500E+00 8.74259E-03
 6.000E+00 8.06559E-03
 6.500E+00 8.24159E-03
 7.000E+00 8.41655E-03
 7.500E+00 9.48496E-03
 8.000E+00 1.11783E-02
 8.500E+00 1.31287E-02
 9.000E+00 1.64836E-02
 9.500E+00 2.06998E-02
 1.000E+01 2.45937E-02
 1.100E+01 2.81348E-02
 1.200E+01 2.52407E-02
 1.300E+01 1.87078E-02
 1.400E+01 1.45211E-02
 1.500E+01 1.21320E-02
 1.600E+01 1.03082E-02
 1.700E+01 8.96981E-03
 1.800E+01 7.57334E-03
 1.900E+01 6.86805E-03
 2.000E+01 6.51284E-03
 2.100E+01 6.25753E-03
 2.200E+01 5.97802E-03
 2.300E+01 5.79244E-03
 2.400E+01 5.59117E-03
 2.500E+01 5.37418E-03
 2.600E+01 5.27555E-03
 2.700E+01 5.17402E-03
 2.800E+01 4.69100E-03
 2.900E+01 4.60573E-03
 3.000E+01 4.56936E-03
