# n + 208Pb: Gamma-ray intensity - 208Pb: Level  3 --> Level  1 - gamma energy    0.860560
# E-initial  =   3.475110 E-final=   2.614550
# E-threshold= 3.49196E+00
# # energies = 67
#    E         xs
 1.000E-11 0.00000E+00
 2.530E-08 0.00000E+00
 2.000E-07 0.00000E+00
 1.000E-06 0.00000E+00
 1.000E-03 0.00000E+00
 2.000E-03 0.00000E+00
 5.000E-03 0.00000E+00
 1.000E-02 0.00000E+00
 2.000E-02 0.00000E+00
 5.000E-02 0.00000E+00
 1.000E-01 0.00000E+00
 2.000E-01 0.00000E+00
 3.000E-01 0.00000E+00
 4.000E-01 0.00000E+00
 5.000E-01 0.00000E+00
 7.500E-01 0.00000E+00
 1.000E+00 0.00000E+00
 1.200E+00 0.00000E+00
 1.400E+00 0.00000E+00
 1.600E+00 0.00000E+00
 1.800E+00 0.00000E+00
 2.000E+00 0.00000E+00
 2.200E+00 0.00000E+00
 2.400E+00 0.00000E+00
 2.600E+00 0.00000E+00
 2.800E+00 0.00000E+00
 3.000E+00 0.00000E+00
 3.200E+00 0.00000E+00
 3.400E+00 0.00000E+00
 3.600E+00 4.04437E+01
 3.800E+00 8.32300E+01
 4.000E+00 1.12414E+02
 4.200E+00 1.22003E+02
 4.400E+00 1.26065E+02
 4.600E+00 1.27814E+02
 4.800E+00 1.28731E+02
 5.000E+00 1.28934E+02
 5.500E+00 1.26746E+02
 6.000E+00 1.23137E+02
 6.500E+00 1.21391E+02
 7.000E+00 1.21591E+02
 7.500E+00 1.23193E+02
 8.000E+00 1.21582E+02
 8.500E+00 1.13479E+02
 9.000E+00 9.97728E+01
 9.500E+00 8.34309E+01
 1.000E+01 6.69775E+01
 1.100E+01 4.07499E+01
 1.200E+01 2.57061E+01
 1.300E+01 1.83571E+01
 1.400E+01 1.47429E+01
 1.500E+01 1.28743E+01
 1.600E+01 1.17093E+01
 1.700E+01 1.10393E+01
 1.800E+01 1.03005E+01
 1.900E+01 9.72148E+00
 2.000E+01 9.20596E+00
 2.100E+01 8.75589E+00
 2.200E+01 8.34871E+00
 2.300E+01 7.98386E+00
 2.400E+01 7.53371E+00
 2.500E+01 7.19061E+00
 2.600E+01 6.79113E+00
 2.700E+01 6.50578E+00
 2.800E+01 6.28645E+00
 2.900E+01 6.00682E+00
 3.000E+01 5.74839E+00
