# n + 208Pb: Gamma-ray intensity - 206Pb: Level  9 --> Level  1 - gamma energy    1.344800
# E-initial  =   2.147900 E-final=   0.803100
# E-threshold= 9.65817E+00
# # energies = 66
#    E         xs
 1.000E-11 0.00000E+00
 2.530E-08 0.00000E+00
 1.000E-06 0.00000E+00
 1.000E-03 0.00000E+00
 2.000E-03 0.00000E+00
 5.000E-03 0.00000E+00
 1.000E-02 0.00000E+00
 2.000E-02 0.00000E+00
 5.000E-02 0.00000E+00
 1.000E-01 0.00000E+00
 2.000E-01 0.00000E+00
 3.000E-01 0.00000E+00
 4.000E-01 0.00000E+00
 5.000E-01 0.00000E+00
 7.500E-01 0.00000E+00
 1.000E+00 0.00000E+00
 1.200E+00 0.00000E+00
 1.400E+00 0.00000E+00
 1.600E+00 0.00000E+00
 1.800E+00 0.00000E+00
 2.000E+00 0.00000E+00
 2.200E+00 0.00000E+00
 2.400E+00 0.00000E+00
 2.600E+00 0.00000E+00
 2.800E+00 0.00000E+00
 3.000E+00 0.00000E+00
 3.200E+00 0.00000E+00
 3.400E+00 0.00000E+00
 3.600E+00 0.00000E+00
 3.800E+00 0.00000E+00
 4.000E+00 0.00000E+00
 4.200E+00 0.00000E+00
 4.400E+00 0.00000E+00
 4.600E+00 0.00000E+00
 4.800E+00 0.00000E+00
 5.000E+00 0.00000E+00
 5.500E+00 0.00000E+00
 6.000E+00 0.00000E+00
 6.500E+00 0.00000E+00
 7.000E+00 0.00000E+00
 7.500E+00 0.00000E+00
 8.000E+00 0.00000E+00
 8.500E+00 0.00000E+00
 9.000E+00 0.00000E+00
 9.500E+00 0.00000E+00
 1.000E+01 0.00000E+00
 1.100E+01 0.00000E+00
 1.200E+01 0.00000E+00
 1.300E+01 0.00000E+00
 1.400E+01 0.00000E+00
 1.500E+01 0.00000E+00
 1.600E+01 0.00000E+00
 1.700E+01 3.52719E-01
 1.800E+01 5.74881E+00
 1.900E+01 1.81787E+01
 2.000E+01 3.30252E+01
 2.100E+01 4.56323E+01
 2.200E+01 5.44677E+01
 2.300E+01 6.05040E+01
 2.400E+01 6.45602E+01
 2.500E+01 6.67898E+01
 2.600E+01 6.60107E+01
 2.700E+01 6.19890E+01
 2.800E+01 5.51246E+01
 2.900E+01 4.72539E+01
 3.000E+01 3.94296E+01
