# n + 208Pb: Gamma-ray intensity - 208Pb: Level 28 --> Level 16 - gamma energy    0.468730
# E-initial  =   4.698320 E-final=   4.229590
# E-threshold= 4.72111E+00
# # energies = 67
#    E         xs
 1.000E-11 0.00000E+00
 2.530E-08 0.00000E+00
 2.000E-07 0.00000E+00
 1.000E-06 0.00000E+00
 1.000E-03 0.00000E+00
 2.000E-03 0.00000E+00
 5.000E-03 0.00000E+00
 1.000E-02 0.00000E+00
 2.000E-02 0.00000E+00
 5.000E-02 0.00000E+00
 1.000E-01 0.00000E+00
 2.000E-01 0.00000E+00
 3.000E-01 0.00000E+00
 4.000E-01 0.00000E+00
 5.000E-01 0.00000E+00
 7.500E-01 0.00000E+00
 1.000E+00 0.00000E+00
 1.200E+00 0.00000E+00
 1.400E+00 0.00000E+00
 1.600E+00 0.00000E+00
 1.800E+00 0.00000E+00
 2.000E+00 0.00000E+00
 2.200E+00 0.00000E+00
 2.400E+00 0.00000E+00
 2.600E+00 0.00000E+00
 2.800E+00 0.00000E+00
 3.000E+00 0.00000E+00
 3.200E+00 0.00000E+00
 3.400E+00 0.00000E+00
 3.600E+00 0.00000E+00
 3.800E+00 0.00000E+00
 4.000E+00 0.00000E+00
 4.200E+00 0.00000E+00
 4.400E+00 0.00000E+00
 4.600E+00 0.00000E+00
 4.800E+00 6.15035E-01
 5.000E+00 1.28697E+00
 5.500E+00 1.80383E+00
 6.000E+00 1.61848E+00
 6.500E+00 1.43954E+00
 7.000E+00 1.29943E+00
 7.500E+00 1.17426E+00
 8.000E+00 1.00488E+00
 8.500E+00 8.02572E-01
 9.000E+00 6.21281E-01
 9.500E+00 4.59662E-01
 1.000E+01 3.32433E-01
 1.100E+01 1.74611E-01
 1.200E+01 1.02440E-01
 1.300E+01 6.91705E-02
 1.400E+01 5.51403E-02
 1.500E+01 4.78809E-02
 1.600E+01 4.38703E-02
 1.700E+01 4.21210E-02
 1.800E+01 3.95966E-02
 1.900E+01 3.72833E-02
 2.000E+01 3.63527E-02
 2.100E+01 3.51916E-02
 2.200E+01 3.34181E-02
 2.300E+01 3.25562E-02
 2.400E+01 3.13152E-02
 2.500E+01 2.97460E-02
 2.600E+01 2.87933E-02
 2.700E+01 2.81982E-02
 2.800E+01 2.75119E-02
 2.900E+01 2.65598E-02
 3.000E+01 2.59397E-02
