# n + 208Pb: Gamma-ray intensity - 208Pb: Level  9 --> Level  5 - gamma energy    0.117477
# E-initial  =   4.037443 E-final=   3.919966
# E-threshold= 4.05702E+00
# # energies =    67
#    E           xs
 1.00000E-11 0.00000E+00
 2.53000E-08 0.00000E+00
 2.00000E-07 0.00000E+00
 1.00000E-06 0.00000E+00
 1.00000E-03 0.00000E+00
 2.00000E-03 0.00000E+00
 5.00000E-03 0.00000E+00
 1.00000E-02 0.00000E+00
 2.00000E-02 0.00000E+00
 5.00000E-02 0.00000E+00
 1.00000E-01 0.00000E+00
 2.00000E-01 0.00000E+00
 3.00000E-01 0.00000E+00
 4.00000E-01 0.00000E+00
 5.00000E-01 0.00000E+00
 7.50000E-01 0.00000E+00
 1.00000E+00 0.00000E+00
 1.20000E+00 0.00000E+00
 1.40000E+00 0.00000E+00
 1.60000E+00 0.00000E+00
 1.80000E+00 0.00000E+00
 2.00000E+00 0.00000E+00
 2.20000E+00 0.00000E+00
 2.40000E+00 0.00000E+00
 2.60000E+00 0.00000E+00
 2.80000E+00 0.00000E+00
 3.00000E+00 0.00000E+00
 3.20000E+00 0.00000E+00
 3.40000E+00 0.00000E+00
 3.60000E+00 0.00000E+00
 3.80000E+00 0.00000E+00
 4.00000E+00 0.00000E+00
 4.20000E+00 2.59004E-01
 4.40000E+00 6.88111E-01
 4.60000E+00 9.90512E-01
 4.80000E+00 1.20183E+00
 5.00000E+00 1.38916E+00
 5.50000E+00 1.97602E+00
 6.00000E+00 2.76929E+00
 6.50000E+00 3.77151E+00
 7.00000E+00 4.94685E+00
 7.50000E+00 6.21487E+00
 8.00000E+00 7.45813E+00
 8.50000E+00 8.47034E+00
 9.00000E+00 8.84228E+00
 9.50000E+00 8.43435E+00
 1.00000E+01 7.40612E+00
 1.10000E+01 4.95152E+00
 1.20000E+01 3.07828E+00
 1.30000E+01 2.11082E+00
 1.40000E+01 1.67864E+00
 1.50000E+01 1.47429E+00
 1.60000E+01 1.37270E+00
 1.70000E+01 1.31724E+00
 1.80000E+01 1.24461E+00
 1.90000E+01 1.17904E+00
 2.00000E+01 1.14427E+00
 2.10000E+01 1.09292E+00
 2.20000E+01 1.04410E+00
 2.30000E+01 1.00251E+00
 2.40000E+01 9.57211E-01
 2.50000E+01 8.89552E-01
 2.60000E+01 8.47017E-01
 2.70000E+01 7.97248E-01
 2.80000E+01 7.55194E-01
 2.90000E+01 7.22590E-01
 3.00000E+01 6.92582E-01
