# n + 208Pb: Gamma-ray intensity - 207Pb: Level  7 --> Level  3 - gamma energy    1.068630
# E-initial  =   2.702000 E-final=   1.633370
# E-threshold= 3.71510E+00
# # energies = 66
#    E         xs
 1.000E-11 0.00000E+00
 2.530E-08 0.00000E+00
 1.000E-06 0.00000E+00
 1.000E-03 0.00000E+00
 2.000E-03 0.00000E+00
 5.000E-03 0.00000E+00
 1.000E-02 0.00000E+00
 2.000E-02 0.00000E+00
 5.000E-02 0.00000E+00
 1.000E-01 0.00000E+00
 2.000E-01 0.00000E+00
 3.000E-01 0.00000E+00
 4.000E-01 0.00000E+00
 5.000E-01 0.00000E+00
 7.500E-01 0.00000E+00
 1.000E+00 0.00000E+00
 1.200E+00 0.00000E+00
 1.400E+00 0.00000E+00
 1.600E+00 0.00000E+00
 1.800E+00 0.00000E+00
 2.000E+00 0.00000E+00
 2.200E+00 0.00000E+00
 2.400E+00 0.00000E+00
 2.600E+00 0.00000E+00
 2.800E+00 0.00000E+00
 3.000E+00 0.00000E+00
 3.200E+00 0.00000E+00
 3.400E+00 0.00000E+00
 3.600E+00 0.00000E+00
 3.800E+00 0.00000E+00
 4.000E+00 0.00000E+00
 4.200E+00 0.00000E+00
 4.400E+00 0.00000E+00
 4.600E+00 0.00000E+00
 4.800E+00 0.00000E+00
 5.000E+00 0.00000E+00
 5.500E+00 0.00000E+00
 6.000E+00 0.00000E+00
 6.500E+00 0.00000E+00
 7.000E+00 0.00000E+00
 7.500E+00 0.00000E+00
 8.000E+00 0.00000E+00
 8.500E+00 0.00000E+00
 9.000E+00 0.00000E+00
 9.500E+00 0.00000E+00
 1.000E+01 0.00000E+00
 1.100E+01 1.01312E+01
 1.200E+01 3.34271E+01
 1.300E+01 5.17102E+01
 1.400E+01 5.99533E+01
 1.500E+01 6.18864E+01
 1.600E+01 5.90616E+01
 1.700E+01 5.06067E+01
 1.800E+01 3.89655E+01
 1.900E+01 2.83001E+01
 2.000E+01 2.06589E+01
 2.100E+01 1.57476E+01
 2.200E+01 1.28040E+01
 2.300E+01 1.10536E+01
 2.400E+01 9.89344E+00
 2.500E+01 9.13415E+00
 2.600E+01 8.49837E+00
 2.700E+01 8.01721E+00
 2.800E+01 7.55473E+00
 2.900E+01 7.32524E+00
 3.000E+01 7.00822E+00
