# n + 208Pb: Gamma-ray intensity - 209Pb: Level  8 --> Level  0 - gamma energy    2.463000
# E-initial  =   2.463000 E-final=   0.000000
# E-threshold= 0.00000E+00
# # energies = 67
#    E         xs
 1.000E-11 0.00000E+00
 2.530E-08 0.00000E+00
 2.000E-07 0.00000E+00
 1.000E-06 2.02484E-01
 1.000E-03 3.00733E-02
 2.000E-03 2.96358E-02
 5.000E-03 2.80038E-02
 1.000E-02 2.01716E-02
 2.000E-02 1.22107E-02
 5.000E-02 6.14221E-03
 1.000E-01 4.05825E-03
 2.000E-01 3.26385E-03
 3.000E-01 3.02797E-03
 4.000E-01 2.94577E-03
 5.000E-01 2.96335E-03
 7.500E-01 3.28480E-03
 1.000E+00 3.89930E-03
 1.200E+00 4.59352E-03
 1.400E+00 5.41457E-03
 1.600E+00 6.46525E-03
 1.800E+00 7.73187E-03
 2.000E+00 9.24152E-03
 2.200E+00 1.12079E-02
 2.400E+00 1.33771E-02
 2.600E+00 1.58867E-02
 2.800E+00 1.24708E-02
 3.000E+00 1.20894E-02
 3.200E+00 1.28432E-02
 3.400E+00 1.32686E-02
 3.600E+00 1.38628E-02
 3.800E+00 1.39808E-02
 4.000E+00 1.45162E-02
 4.200E+00 1.33023E-02
 4.400E+00 1.07234E-02
 4.600E+00 9.23368E-03
 4.800E+00 8.66293E-03
 5.000E+00 7.85804E-03
 5.500E+00 6.00979E-03
 6.000E+00 4.92880E-03
 6.500E+00 4.43486E-03
 7.000E+00 4.44333E-03
 7.500E+00 4.60687E-03
 8.000E+00 5.44092E-03
 8.500E+00 6.86748E-03
 9.000E+00 9.03772E-03
 9.500E+00 1.28878E-02
 1.000E+01 1.81066E-02
 1.100E+01 2.47993E-02
 1.200E+01 1.88620E-02
 1.300E+01 1.26141E-02
 1.400E+01 9.27344E-03
 1.500E+01 7.56562E-03
 1.600E+01 6.27304E-03
 1.700E+01 6.07611E-03
 1.800E+01 5.47550E-03
 1.900E+01 5.59938E-03
 2.000E+01 5.43097E-03
 2.100E+01 4.68693E-03
 2.200E+01 4.55265E-03
 2.300E+01 4.31520E-03
 2.400E+01 3.76967E-03
 2.500E+01 3.49852E-03
 2.600E+01 2.95170E-03
 2.700E+01 2.75134E-03
 2.800E+01 2.47379E-03
 2.900E+01 2.22779E-03
 3.000E+01 2.11687E-03
