# n + 208Pb: Gamma-ray intensity - 208Pb: Level 25 --> Level  2 - gamma energy    1.283040
# E-initial  =   4.480750 E-final=   3.197710
# E-threshold= 4.50248E+00
# # energies = 67
#    E         xs
 1.000E-11 0.00000E+00
 2.530E-08 0.00000E+00
 2.000E-07 0.00000E+00
 1.000E-06 0.00000E+00
 1.000E-03 0.00000E+00
 2.000E-03 0.00000E+00
 5.000E-03 0.00000E+00
 1.000E-02 0.00000E+00
 2.000E-02 0.00000E+00
 5.000E-02 0.00000E+00
 1.000E-01 0.00000E+00
 2.000E-01 0.00000E+00
 3.000E-01 0.00000E+00
 4.000E-01 0.00000E+00
 5.000E-01 0.00000E+00
 7.500E-01 0.00000E+00
 1.000E+00 0.00000E+00
 1.200E+00 0.00000E+00
 1.400E+00 0.00000E+00
 1.600E+00 0.00000E+00
 1.800E+00 0.00000E+00
 2.000E+00 0.00000E+00
 2.200E+00 0.00000E+00
 2.400E+00 0.00000E+00
 2.600E+00 0.00000E+00
 2.800E+00 0.00000E+00
 3.000E+00 0.00000E+00
 3.200E+00 0.00000E+00
 3.400E+00 0.00000E+00
 3.600E+00 0.00000E+00
 3.800E+00 0.00000E+00
 4.000E+00 0.00000E+00
 4.200E+00 0.00000E+00
 4.400E+00 0.00000E+00
 4.600E+00 7.41681E+00
 4.800E+00 1.47939E+01
 5.000E+00 2.01931E+01
 5.500E+00 2.53435E+01
 6.000E+00 2.65106E+01
 6.500E+00 2.78715E+01
 7.000E+00 2.93172E+01
 7.500E+00 3.09768E+01
 8.000E+00 3.26202E+01
 8.500E+00 3.30620E+01
 9.000E+00 3.09627E+01
 9.500E+00 2.69360E+01
 1.000E+01 2.20000E+01
 1.100E+01 1.31485E+01
 1.200E+01 7.72395E+00
 1.300E+01 5.06617E+00
 1.400E+01 3.81661E+00
 1.500E+01 3.23846E+00
 1.600E+01 2.93841E+00
 1.700E+01 2.76089E+00
 1.800E+01 2.57753E+00
 1.900E+01 2.41719E+00
 2.000E+01 2.31440E+00
 2.100E+01 2.20229E+00
 2.200E+01 2.08706E+00
 2.300E+01 2.00123E+00
 2.400E+01 1.89541E+00
 2.500E+01 1.79008E+00
 2.600E+01 1.69628E+00
 2.700E+01 1.61258E+00
 2.800E+01 1.54921E+00
 2.900E+01 1.49379E+00
 3.000E+01 1.43801E+00
