# n + 208Pb: Gamma-ray intensity - 207Pb: Level  8 --> Level  4 - gamma energy    0.387050
# E-initial  =   2.727000 E-final=   2.339950
# E-threshold= 1.01438E+01
# # energies = 67
#    E         xs
 1.000E-11 0.00000E+00
 2.530E-08 0.00000E+00
 2.000E-07 0.00000E+00
 1.000E-06 0.00000E+00
 1.000E-03 0.00000E+00
 2.000E-03 0.00000E+00
 5.000E-03 0.00000E+00
 1.000E-02 0.00000E+00
 2.000E-02 0.00000E+00
 5.000E-02 0.00000E+00
 1.000E-01 0.00000E+00
 2.000E-01 0.00000E+00
 3.000E-01 0.00000E+00
 4.000E-01 0.00000E+00
 5.000E-01 0.00000E+00
 7.500E-01 0.00000E+00
 1.000E+00 0.00000E+00
 1.200E+00 0.00000E+00
 1.400E+00 0.00000E+00
 1.600E+00 0.00000E+00
 1.800E+00 0.00000E+00
 2.000E+00 0.00000E+00
 2.200E+00 0.00000E+00
 2.400E+00 0.00000E+00
 2.600E+00 0.00000E+00
 2.800E+00 0.00000E+00
 3.000E+00 0.00000E+00
 3.200E+00 0.00000E+00
 3.400E+00 0.00000E+00
 3.600E+00 0.00000E+00
 3.800E+00 0.00000E+00
 4.000E+00 0.00000E+00
 4.200E+00 0.00000E+00
 4.400E+00 0.00000E+00
 4.600E+00 0.00000E+00
 4.800E+00 0.00000E+00
 5.000E+00 0.00000E+00
 5.500E+00 0.00000E+00
 6.000E+00 0.00000E+00
 6.500E+00 0.00000E+00
 7.000E+00 0.00000E+00
 7.500E+00 0.00000E+00
 8.000E+00 0.00000E+00
 8.500E+00 0.00000E+00
 9.000E+00 0.00000E+00
 9.500E+00 0.00000E+00
 1.000E+01 0.00000E+00
 1.100E+01 1.94865E+00
 1.200E+01 7.36891E+00
 1.300E+01 1.24480E+01
 1.400E+01 1.53466E+01
 1.500E+01 1.64662E+01
 1.600E+01 1.63102E+01
 1.700E+01 1.47394E+01
 1.800E+01 1.22280E+01
 1.900E+01 9.55952E+00
 2.000E+01 7.34738E+00
 2.100E+01 5.70517E+00
 2.200E+01 4.60488E+00
 2.300E+01 3.90798E+00
 2.400E+01 3.44918E+00
 2.500E+01 3.15346E+00
 2.600E+01 2.93685E+00
 2.700E+01 2.77155E+00
 2.800E+01 2.64056E+00
 2.900E+01 2.50868E+00
 3.000E+01 2.41561E+00
