# n + 208Pb: Gamma-ray intensity - 209Pb: Level  7 --> Level  3 - gamma energy    0.856910
# E-initial  =   2.424000 E-final=   1.567090
# E-threshold= 0.00000E+00
# # energies = 66
#    E         xs
 1.000E-11 0.00000E+00
 2.530E-08 0.00000E+00
 1.000E-06 0.00000E+00
 1.000E-03 0.00000E+00
 2.000E-03 0.00000E+00
 5.000E-03 0.00000E+00
 1.000E-02 0.00000E+00
 2.000E-02 0.00000E+00
 5.000E-02 0.00000E+00
 1.000E-01 0.00000E+00
 2.000E-01 0.00000E+00
 3.000E-01 0.00000E+00
 4.000E-01 0.00000E+00
 5.000E-01 0.00000E+00
 7.500E-01 0.00000E+00
 1.000E+00 3.17875E-03
 1.200E+00 3.45571E-03
 1.400E+00 3.81290E-03
 1.600E+00 4.20150E-03
 1.800E+00 4.68417E-03
 2.000E+00 5.24875E-03
 2.200E+00 5.90124E-03
 2.400E+00 6.66779E-03
 2.600E+00 8.07221E-03
 2.800E+00 5.87196E-03
 3.000E+00 5.60643E-03
 3.200E+00 5.92845E-03
 3.400E+00 5.62952E-03
 3.600E+00 5.61951E-03
 3.800E+00 5.64672E-03
 4.000E+00 5.81241E-03
 4.200E+00 5.23072E-03
 4.400E+00 4.30709E-03
 4.600E+00 3.75844E-03
 4.800E+00 3.35919E-03
 5.000E+00 2.99778E-03
 5.500E+00 2.54617E-03
 6.000E+00 2.24908E-03
 6.500E+00 2.30218E-03
 7.000E+00 2.51589E-03
 7.500E+00 3.17386E-03
 8.000E+00 4.36738E-03
 8.500E+00 6.37525E-03
 9.000E+00 1.00463E-02
 9.500E+00 1.59020E-02
 1.000E+01 2.29708E-02
 1.100E+01 2.92219E-02
 1.200E+01 2.18330E-02
 1.300E+01 1.33300E-02
 1.400E+01 9.89083E-03
 1.500E+01 7.68450E-03
 1.600E+01 6.28207E-03
 1.700E+01 5.38068E-03
 1.800E+01 4.49760E-03
 1.900E+01 4.08277E-03
 2.000E+01 3.81246E-03
 2.100E+01 3.58231E-03
 2.200E+01 3.39406E-03
 2.300E+01 3.27607E-03
 2.400E+01 3.15631E-03
 2.500E+01 3.09467E-03
 2.600E+01 3.04537E-03
 2.700E+01 2.91295E-03
 2.800E+01 2.71740E-03
 2.900E+01 2.69693E-03
 3.000E+01 2.69025E-03
