# n + 208Pb: Gamma-ray intensity - 208Pb: Level  3 --> Level  1 - gamma energy    0.860560
# E-initial  =   3.475110 E-final=   2.614550
# E-threshold= 3.49196E+00
# # energies = 67
#    E         xs
 1.000E-11 0.00000E+00
 2.530E-08 0.00000E+00
 2.000E-07 0.00000E+00
 1.000E-06 0.00000E+00
 1.000E-03 0.00000E+00
 2.000E-03 0.00000E+00
 5.000E-03 0.00000E+00
 1.000E-02 0.00000E+00
 2.000E-02 0.00000E+00
 5.000E-02 0.00000E+00
 1.000E-01 0.00000E+00
 2.000E-01 0.00000E+00
 3.000E-01 0.00000E+00
 4.000E-01 0.00000E+00
 5.000E-01 0.00000E+00
 7.500E-01 0.00000E+00
 1.000E+00 0.00000E+00
 1.200E+00 0.00000E+00
 1.400E+00 0.00000E+00
 1.600E+00 0.00000E+00
 1.800E+00 0.00000E+00
 2.000E+00 0.00000E+00
 2.200E+00 0.00000E+00
 2.400E+00 0.00000E+00
 2.600E+00 0.00000E+00
 2.800E+00 0.00000E+00
 3.000E+00 0.00000E+00
 3.200E+00 0.00000E+00
 3.400E+00 0.00000E+00
 3.600E+00 4.80257E+01
 3.800E+00 9.84420E+01
 4.000E+00 1.32431E+02
 4.200E+00 1.43215E+02
 4.400E+00 1.47923E+02
 4.600E+00 1.50803E+02
 4.800E+00 1.53159E+02
 5.000E+00 1.54774E+02
 5.500E+00 1.54927E+02
 6.000E+00 1.52085E+02
 6.500E+00 1.50466E+02
 7.000E+00 1.50450E+02
 7.500E+00 1.51683E+02
 8.000E+00 1.47720E+02
 8.500E+00 1.35473E+02
 9.000E+00 1.16952E+02
 9.500E+00 9.64934E+01
 1.000E+01 7.64871E+01
 1.100E+01 4.58284E+01
 1.200E+01 2.91498E+01
 1.300E+01 2.10414E+01
 1.400E+01 1.71195E+01
 1.500E+01 1.50372E+01
 1.600E+01 1.37509E+01
 1.700E+01 1.29696E+01
 1.800E+01 1.20851E+01
 1.900E+01 1.13878E+01
 2.000E+01 1.08158E+01
 2.100E+01 1.02532E+01
 2.200E+01 9.77592E+00
 2.300E+01 9.29531E+00
 2.400E+01 8.78755E+00
 2.500E+01 8.36017E+00
 2.600E+01 7.88551E+00
 2.700E+01 7.57441E+00
 2.800E+01 7.25933E+00
 2.900E+01 6.99130E+00
 3.000E+01 6.66494E+00
