# n + 208Pb: Gamma-ray intensity - 208Pb: Level 10 --> Level  5 - gamma energy    0.125200
# E-initial  =   4.045000 E-final=   3.919800
# E-threshold= 4.06462E+00
# # energies = 67
#    E         xs
 1.000E-11 0.00000E+00
 2.530E-08 0.00000E+00
 2.000E-07 0.00000E+00
 1.000E-06 0.00000E+00
 1.000E-03 0.00000E+00
 2.000E-03 0.00000E+00
 5.000E-03 0.00000E+00
 1.000E-02 0.00000E+00
 2.000E-02 0.00000E+00
 5.000E-02 0.00000E+00
 1.000E-01 0.00000E+00
 2.000E-01 0.00000E+00
 3.000E-01 0.00000E+00
 4.000E-01 0.00000E+00
 5.000E-01 0.00000E+00
 7.500E-01 0.00000E+00
 1.000E+00 0.00000E+00
 1.200E+00 0.00000E+00
 1.400E+00 0.00000E+00
 1.600E+00 0.00000E+00
 1.800E+00 0.00000E+00
 2.000E+00 0.00000E+00
 2.200E+00 0.00000E+00
 2.400E+00 0.00000E+00
 2.600E+00 0.00000E+00
 2.800E+00 0.00000E+00
 3.000E+00 0.00000E+00
 3.200E+00 0.00000E+00
 3.400E+00 0.00000E+00
 3.600E+00 0.00000E+00
 3.800E+00 0.00000E+00
 4.000E+00 0.00000E+00
 4.200E+00 1.03890E+01
 4.400E+00 1.59398E+01
 4.600E+00 1.95834E+01
 4.800E+00 2.16792E+01
 5.000E+00 2.29940E+01
 5.500E+00 2.54449E+01
 6.000E+00 2.80632E+01
 6.500E+00 3.10928E+01
 7.000E+00 3.46393E+01
 7.500E+00 3.86741E+01
 8.000E+00 4.23578E+01
 8.500E+00 4.41944E+01
 9.000E+00 4.25675E+01
 9.500E+00 3.80850E+01
 1.000E+01 3.22428E+01
 1.100E+01 2.07132E+01
 1.200E+01 1.29870E+01
 1.300E+01 9.12418E+00
 1.400E+01 7.22494E+00
 1.500E+01 6.30476E+00
 1.600E+01 5.81426E+00
 1.700E+01 5.54477E+00
 1.800E+01 5.20086E+00
 1.900E+01 4.97359E+00
 2.000E+01 4.74431E+00
 2.100E+01 4.53757E+00
 2.200E+01 4.33536E+00
 2.300E+01 4.19519E+00
 2.400E+01 3.96094E+00
 2.500E+01 3.81672E+00
 2.600E+01 3.59284E+00
 2.700E+01 3.48408E+00
 2.800E+01 3.37160E+00
 2.900E+01 3.20177E+00
 3.000E+01 3.09931E+00
