# n + 208Pb: Gamma-ray intensity - 208Pb: Level 14 --> Level  3 - gamma energy    0.650200
# E-initial  =   4.125310 E-final=   3.475110
# E-threshold= 4.14532E+00
# # energies = 67
#    E         xs
 1.000E-11 0.00000E+00
 2.530E-08 0.00000E+00
 2.000E-07 0.00000E+00
 1.000E-06 0.00000E+00
 1.000E-03 0.00000E+00
 2.000E-03 0.00000E+00
 5.000E-03 0.00000E+00
 1.000E-02 0.00000E+00
 2.000E-02 0.00000E+00
 5.000E-02 0.00000E+00
 1.000E-01 0.00000E+00
 2.000E-01 0.00000E+00
 3.000E-01 0.00000E+00
 4.000E-01 0.00000E+00
 5.000E-01 0.00000E+00
 7.500E-01 0.00000E+00
 1.000E+00 0.00000E+00
 1.200E+00 0.00000E+00
 1.400E+00 0.00000E+00
 1.600E+00 0.00000E+00
 1.800E+00 0.00000E+00
 2.000E+00 0.00000E+00
 2.200E+00 0.00000E+00
 2.400E+00 0.00000E+00
 2.600E+00 0.00000E+00
 2.800E+00 0.00000E+00
 3.000E+00 0.00000E+00
 3.200E+00 0.00000E+00
 3.400E+00 0.00000E+00
 3.600E+00 0.00000E+00
 3.800E+00 0.00000E+00
 4.000E+00 0.00000E+00
 4.200E+00 5.61673E+00
 4.400E+00 1.23803E+01
 4.600E+00 1.57274E+01
 4.800E+00 1.69100E+01
 5.000E+00 1.69336E+01
 5.500E+00 1.55039E+01
 6.000E+00 1.41227E+01
 6.500E+00 1.30940E+01
 7.000E+00 1.23711E+01
 7.500E+00 1.19670E+01
 8.000E+00 1.12148E+01
 8.500E+00 9.84950E+00
 9.000E+00 8.14558E+00
 9.500E+00 6.46417E+00
 1.000E+01 4.93827E+00
 1.100E+01 2.80576E+00
 1.200E+01 1.74561E+00
 1.300E+01 1.23680E+00
 1.400E+01 9.96638E-01
 1.500E+01 8.70452E-01
 1.600E+01 7.94310E-01
 1.700E+01 7.53275E-01
 1.800E+01 7.04519E-01
 1.900E+01 6.66425E-01
 2.000E+01 6.37038E-01
 2.100E+01 6.08116E-01
 2.200E+01 5.91166E-01
 2.300E+01 5.63897E-01
 2.400E+01 5.37822E-01
 2.500E+01 5.19749E-01
 2.600E+01 4.93356E-01
 2.700E+01 4.75791E-01
 2.800E+01 4.53342E-01
 2.900E+01 4.44427E-01
 3.000E+01 4.23497E-01
