# n + 208Pb: Gamma-ray intensity - 208Pb: Level  8 --> Level  2 - gamma energy    0.797960
# E-initial  =   3.995700 E-final=   3.197740
# E-threshold= 4.01508E+00
# # energies = 67
#    E         xs
 1.000E-11 0.00000E+00
 2.530E-08 0.00000E+00
 2.000E-07 0.00000E+00
 1.000E-06 0.00000E+00
 1.000E-03 0.00000E+00
 2.000E-03 0.00000E+00
 5.000E-03 0.00000E+00
 1.000E-02 0.00000E+00
 2.000E-02 0.00000E+00
 5.000E-02 0.00000E+00
 1.000E-01 0.00000E+00
 2.000E-01 0.00000E+00
 3.000E-01 0.00000E+00
 4.000E-01 0.00000E+00
 5.000E-01 0.00000E+00
 7.500E-01 0.00000E+00
 1.000E+00 0.00000E+00
 1.200E+00 0.00000E+00
 1.400E+00 0.00000E+00
 1.600E+00 0.00000E+00
 1.800E+00 0.00000E+00
 2.000E+00 0.00000E+00
 2.200E+00 0.00000E+00
 2.400E+00 0.00000E+00
 2.600E+00 0.00000E+00
 2.800E+00 0.00000E+00
 3.000E+00 0.00000E+00
 3.200E+00 0.00000E+00
 3.400E+00 0.00000E+00
 3.600E+00 0.00000E+00
 3.800E+00 0.00000E+00
 4.000E+00 0.00000E+00
 4.200E+00 1.06808E+01
 4.400E+00 1.46089E+01
 4.600E+00 1.64368E+01
 4.800E+00 1.69374E+01
 5.000E+00 1.68286E+01
 5.500E+00 1.58706E+01
 6.000E+00 1.49436E+01
 6.500E+00 1.43372E+01
 7.000E+00 1.41521E+01
 7.500E+00 1.43527E+01
 8.000E+00 1.44320E+01
 8.500E+00 1.37775E+01
 9.000E+00 1.22263E+01
 9.500E+00 1.02501E+01
 1.000E+01 8.23220E+00
 1.100E+01 4.99184E+00
 1.200E+01 3.15801E+00
 1.300E+01 2.26635E+00
 1.400E+01 1.82992E+00
 1.500E+01 1.60810E+00
 1.600E+01 1.46985E+00
 1.700E+01 1.39114E+00
 1.800E+01 1.30868E+00
 1.900E+01 1.24296E+00
 2.000E+01 1.18359E+00
 2.100E+01 1.13482E+00
 2.200E+01 1.09433E+00
 2.300E+01 1.05092E+00
 2.400E+01 1.00149E+00
 2.500E+01 9.63479E-01
 2.600E+01 9.18114E-01
 2.700E+01 8.84573E-01
 2.800E+01 8.54537E-01
 2.900E+01 8.23779E-01
 3.000E+01 7.92908E-01
