# n + 208Pb: Gamma-ray intensity - 208Pb: Level  3 --> Level  1 - gamma energy    0.860560
# E-initial  =   3.475110 E-final=   2.614550
# E-threshold= 3.49196E+00
# # energies = 67
#    E         xs
 1.000E-11 0.00000E+00
 2.530E-08 0.00000E+00
 2.000E-07 0.00000E+00
 1.000E-06 0.00000E+00
 1.000E-03 0.00000E+00
 2.000E-03 0.00000E+00
 5.000E-03 0.00000E+00
 1.000E-02 0.00000E+00
 2.000E-02 0.00000E+00
 5.000E-02 0.00000E+00
 1.000E-01 0.00000E+00
 2.000E-01 0.00000E+00
 3.000E-01 0.00000E+00
 4.000E-01 0.00000E+00
 5.000E-01 0.00000E+00
 7.500E-01 0.00000E+00
 1.000E+00 0.00000E+00
 1.200E+00 0.00000E+00
 1.400E+00 0.00000E+00
 1.600E+00 0.00000E+00
 1.800E+00 0.00000E+00
 2.000E+00 0.00000E+00
 2.200E+00 0.00000E+00
 2.400E+00 0.00000E+00
 2.600E+00 0.00000E+00
 2.800E+00 0.00000E+00
 3.000E+00 0.00000E+00
 3.200E+00 0.00000E+00
 3.400E+00 0.00000E+00
 3.600E+00 4.04123E+01
 3.800E+00 8.31656E+01
 4.000E+00 1.12329E+02
 4.200E+00 1.21913E+02
 4.400E+00 1.24083E+02
 4.600E+00 1.22398E+02
 4.800E+00 1.20953E+02
 5.000E+00 1.20220E+02
 5.500E+00 1.19629E+02
 6.000E+00 1.18809E+02
 6.500E+00 1.18374E+02
 7.000E+00 1.18621E+02
 7.500E+00 1.19323E+02
 8.000E+00 1.14902E+02
 8.500E+00 1.02140E+02
 9.000E+00 8.46761E+01
 9.500E+00 6.68270E+01
 1.000E+01 5.10112E+01
 1.100E+01 2.97155E+01
 1.200E+01 1.96212E+01
 1.300E+01 1.52482E+01
 1.400E+01 1.31560E+01
 1.500E+01 1.20091E+01
 1.600E+01 1.12046E+01
 1.700E+01 1.07102E+01
 1.800E+01 1.00861E+01
 1.900E+01 9.57296E+00
 2.000E+01 9.10968E+00
 2.100E+01 8.68831E+00
 2.200E+01 8.27047E+00
 2.300E+01 7.91617E+00
 2.400E+01 7.49812E+00
 2.500E+01 7.14221E+00
 2.600E+01 6.77502E+00
 2.700E+01 6.49640E+00
 2.800E+01 6.26903E+00
 2.900E+01 6.01100E+00
 3.000E+01 5.77247E+00
