# n + 208Pb: Gamma-ray intensity - 208Pb: Level 19 --> Level 12 - gamma energy    0.171210
# E-initial  =   4.296560 E-final=   4.125350
# E-threshold= 4.31740E+00
# # energies = 67
#    E         xs
 1.000E-11 0.00000E+00
 2.530E-08 0.00000E+00
 2.000E-07 0.00000E+00
 1.000E-06 0.00000E+00
 1.000E-03 0.00000E+00
 2.000E-03 0.00000E+00
 5.000E-03 0.00000E+00
 1.000E-02 0.00000E+00
 2.000E-02 0.00000E+00
 5.000E-02 0.00000E+00
 1.000E-01 0.00000E+00
 2.000E-01 0.00000E+00
 3.000E-01 0.00000E+00
 4.000E-01 0.00000E+00
 5.000E-01 0.00000E+00
 7.500E-01 0.00000E+00
 1.000E+00 0.00000E+00
 1.200E+00 0.00000E+00
 1.400E+00 0.00000E+00
 1.600E+00 0.00000E+00
 1.800E+00 0.00000E+00
 2.000E+00 0.00000E+00
 2.200E+00 0.00000E+00
 2.400E+00 0.00000E+00
 2.600E+00 0.00000E+00
 2.800E+00 0.00000E+00
 3.000E+00 0.00000E+00
 3.200E+00 0.00000E+00
 3.400E+00 0.00000E+00
 3.600E+00 0.00000E+00
 3.800E+00 0.00000E+00
 4.000E+00 0.00000E+00
 4.200E+00 0.00000E+00
 4.400E+00 5.33854E-01
 4.600E+00 1.01721E+00
 4.800E+00 1.34821E+00
 5.000E+00 1.52497E+00
 5.500E+00 1.56819E+00
 6.000E+00 1.47804E+00
 6.500E+00 1.40357E+00
 7.000E+00 1.35011E+00
 7.500E+00 1.32626E+00
 8.000E+00 1.29210E+00
 8.500E+00 1.19498E+00
 9.000E+00 1.03234E+00
 9.500E+00 8.45602E-01
 1.000E+01 6.66112E-01
 1.100E+01 3.95048E-01
 1.200E+01 2.52700E-01
 1.300E+01 1.85150E-01
 1.400E+01 1.53439E-01
 1.500E+01 1.36690E-01
 1.600E+01 1.26255E-01
 1.700E+01 1.19188E-01
 1.800E+01 1.12463E-01
 1.900E+01 1.06727E-01
 2.000E+01 1.02176E-01
 2.100E+01 9.76144E-02
 2.200E+01 9.32578E-02
 2.300E+01 8.91877E-02
 2.400E+01 8.51330E-02
 2.500E+01 8.10917E-02
 2.600E+01 7.72115E-02
 2.700E+01 7.45656E-02
 2.800E+01 7.20236E-02
 2.900E+01 6.97322E-02
 3.000E+01 6.74083E-02
