# n + 208Pb: Gamma-ray intensity - 208Pb: Level  2 --> Level  1 - gamma energy    0.583190
# E-initial  =   3.197740 E-final=   2.614550
# E-threshold= 3.21325E+00
# # energies = 67
#    E         xs
 1.000E-11 0.00000E+00
 2.530E-08 0.00000E+00
 2.000E-07 0.00000E+00
 1.000E-06 0.00000E+00
 1.000E-03 0.00000E+00
 2.000E-03 0.00000E+00
 5.000E-03 0.00000E+00
 1.000E-02 0.00000E+00
 2.000E-02 0.00000E+00
 5.000E-02 0.00000E+00
 1.000E-01 0.00000E+00
 2.000E-01 0.00000E+00
 3.000E-01 0.00000E+00
 4.000E-01 0.00000E+00
 5.000E-01 0.00000E+00
 7.500E-01 0.00000E+00
 1.000E+00 0.00000E+00
 1.200E+00 0.00000E+00
 1.400E+00 0.00000E+00
 1.600E+00 0.00000E+00
 1.800E+00 0.00000E+00
 2.000E+00 0.00000E+00
 2.200E+00 0.00000E+00
 2.400E+00 0.00000E+00
 2.600E+00 0.00000E+00
 2.800E+00 0.00000E+00
 3.000E+00 0.00000E+00
 3.200E+00 0.00000E+00
 3.400E+00 1.34957E+02
 3.600E+00 2.48018E+02
 3.800E+00 3.73047E+02
 4.000E+00 5.26100E+02
 4.200E+00 6.93800E+02
 4.400E+00 8.34813E+02
 4.600E+00 9.14475E+02
 4.800E+00 9.62074E+02
 5.000E+00 9.91075E+02
 5.500E+00 1.02744E+03
 6.000E+00 1.05095E+03
 6.500E+00 1.08570E+03
 7.000E+00 1.13627E+03
 7.500E+00 1.20063E+03
 8.000E+00 1.23949E+03
 8.500E+00 1.21686E+03
 9.000E+00 1.12228E+03
 9.500E+00 9.81955E+02
 1.000E+01 8.23138E+02
 1.100E+01 5.37364E+02
 1.200E+01 3.54451E+02
 1.300E+01 2.60665E+02
 1.400E+01 2.12958E+02
 1.500E+01 1.88672E+02
 1.600E+01 1.74450E+02
 1.700E+01 1.66096E+02
 1.800E+01 1.56577E+02
 1.900E+01 1.49464E+02
 2.000E+01 1.42853E+02
 2.100E+01 1.36719E+02
 2.200E+01 1.29987E+02
 2.300E+01 1.25031E+02
 2.400E+01 1.18655E+02
 2.500E+01 1.13443E+02
 2.600E+01 1.07583E+02
 2.700E+01 1.03826E+02
 2.800E+01 1.00286E+02
 2.900E+01 9.60443E+01
 3.000E+01 9.24830E+01
