# n + 208Pb: Gamma-ray intensity - 208Pb: Level 29 --> Level 19 - gamma energy    0.412170
# E-initial  =   4.708730 E-final=   4.296560
# E-threshold= 4.73157E+00
# # energies = 67
#    E         xs
 1.000E-11 0.00000E+00
 2.530E-08 0.00000E+00
 2.000E-07 0.00000E+00
 1.000E-06 0.00000E+00
 1.000E-03 0.00000E+00
 2.000E-03 0.00000E+00
 5.000E-03 0.00000E+00
 1.000E-02 0.00000E+00
 2.000E-02 0.00000E+00
 5.000E-02 0.00000E+00
 1.000E-01 0.00000E+00
 2.000E-01 0.00000E+00
 3.000E-01 0.00000E+00
 4.000E-01 0.00000E+00
 5.000E-01 0.00000E+00
 7.500E-01 0.00000E+00
 1.000E+00 0.00000E+00
 1.200E+00 0.00000E+00
 1.400E+00 0.00000E+00
 1.600E+00 0.00000E+00
 1.800E+00 0.00000E+00
 2.000E+00 0.00000E+00
 2.200E+00 0.00000E+00
 2.400E+00 0.00000E+00
 2.600E+00 0.00000E+00
 2.800E+00 0.00000E+00
 3.000E+00 0.00000E+00
 3.200E+00 0.00000E+00
 3.400E+00 0.00000E+00
 3.600E+00 0.00000E+00
 3.800E+00 0.00000E+00
 4.000E+00 0.00000E+00
 4.200E+00 0.00000E+00
 4.400E+00 0.00000E+00
 4.600E+00 0.00000E+00
 4.800E+00 7.81299E-01
 5.000E+00 1.87120E+00
 5.500E+00 3.00654E+00
 6.000E+00 3.02953E+00
 6.500E+00 2.96593E+00
 7.000E+00 2.93805E+00
 7.500E+00 2.90794E+00
 8.000E+00 2.84206E+00
 8.500E+00 2.68211E+00
 9.000E+00 2.42354E+00
 9.500E+00 2.12863E+00
 1.000E+01 1.83972E+00
 1.100E+01 1.38583E+00
 1.200E+01 1.13171E+00
 1.300E+01 1.00194E+00
 1.400E+01 9.28833E-01
 1.500E+01 8.74743E-01
 1.600E+01 8.29779E-01
 1.700E+01 7.92565E-01
 1.800E+01 7.61280E-01
 1.900E+01 7.34859E-01
 2.000E+01 7.11952E-01
 2.100E+01 6.87982E-01
 2.200E+01 6.63567E-01
 2.300E+01 6.39292E-01
 2.400E+01 6.15779E-01
 2.500E+01 5.94854E-01
 2.600E+01 5.76025E-01
 2.700E+01 5.60009E-01
 2.800E+01 5.44691E-01
 2.900E+01 5.30033E-01
 3.000E+01 5.15251E-01
