# n + 208Pb: Gamma-ray intensity - 208Pb: Level  5 --> Level  2 - gamma energy    0.722060
# E-initial  =   3.919800 E-final=   3.197740
# E-threshold= 3.93881E+00
# # energies = 67
#    E         xs
 1.000E-11 0.00000E+00
 2.530E-08 0.00000E+00
 2.000E-07 0.00000E+00
 1.000E-06 0.00000E+00
 1.000E-03 0.00000E+00
 2.000E-03 0.00000E+00
 5.000E-03 0.00000E+00
 1.000E-02 0.00000E+00
 2.000E-02 0.00000E+00
 5.000E-02 0.00000E+00
 1.000E-01 0.00000E+00
 2.000E-01 0.00000E+00
 3.000E-01 0.00000E+00
 4.000E-01 0.00000E+00
 5.000E-01 0.00000E+00
 7.500E-01 0.00000E+00
 1.000E+00 0.00000E+00
 1.200E+00 0.00000E+00
 1.400E+00 0.00000E+00
 1.600E+00 0.00000E+00
 1.800E+00 0.00000E+00
 2.000E+00 0.00000E+00
 2.200E+00 0.00000E+00
 2.400E+00 0.00000E+00
 2.600E+00 0.00000E+00
 2.800E+00 0.00000E+00
 3.000E+00 0.00000E+00
 3.200E+00 0.00000E+00
 3.400E+00 0.00000E+00
 3.600E+00 0.00000E+00
 3.800E+00 0.00000E+00
 4.000E+00 6.97216E+00
 4.200E+00 1.71428E+01
 4.400E+00 2.90195E+01
 4.600E+00 3.60560E+01
 4.800E+00 3.99871E+01
 5.000E+00 4.21988E+01
 5.500E+00 4.55144E+01
 6.000E+00 4.88686E+01
 6.500E+00 5.30039E+01
 7.000E+00 5.80440E+01
 7.500E+00 6.39238E+01
 8.000E+00 6.89987E+01
 8.500E+00 7.10169E+01
 9.000E+00 6.78910E+01
 9.500E+00 6.05591E+01
 1.000E+01 5.11982E+01
 1.100E+01 3.29260E+01
 1.200E+01 2.06899E+01
 1.300E+01 1.45360E+01
 1.400E+01 1.14865E+01
 1.500E+01 9.99568E+00
 1.600E+01 9.18792E+00
 1.700E+01 8.73352E+00
 1.800E+01 8.16408E+00
 1.900E+01 7.78247E+00
 2.000E+01 7.40094E+00
 2.100E+01 7.06058E+00
 2.200E+01 6.72120E+00
 2.300E+01 6.48046E+00
 2.400E+01 6.09937E+00
 2.500E+01 5.84899E+00
 2.600E+01 5.50026E+00
 2.700E+01 5.31196E+00
 2.800E+01 5.12211E+00
 2.900E+01 4.84984E+00
 3.000E+01 4.67908E+00
