# n + 208Pb: Gamma-ray intensity - 208Pb: Level 12 --> Level  3 - gamma energy    0.650269
# E-initial  =   4.125347 E-final=   3.475078
# E-threshold= 4.14535E+00
# # energies =    67
#    E           xs
 1.00000E-11 0.00000E+00
 2.53000E-08 0.00000E+00
 2.00000E-07 0.00000E+00
 1.00000E-06 0.00000E+00
 1.00000E-03 0.00000E+00
 2.00000E-03 0.00000E+00
 5.00000E-03 0.00000E+00
 1.00000E-02 0.00000E+00
 2.00000E-02 0.00000E+00
 5.00000E-02 0.00000E+00
 1.00000E-01 0.00000E+00
 2.00000E-01 0.00000E+00
 3.00000E-01 0.00000E+00
 4.00000E-01 0.00000E+00
 5.00000E-01 0.00000E+00
 7.50000E-01 0.00000E+00
 1.00000E+00 0.00000E+00
 1.20000E+00 0.00000E+00
 1.40000E+00 0.00000E+00
 1.60000E+00 0.00000E+00
 1.80000E+00 0.00000E+00
 2.00000E+00 0.00000E+00
 2.20000E+00 0.00000E+00
 2.40000E+00 0.00000E+00
 2.60000E+00 0.00000E+00
 2.80000E+00 0.00000E+00
 3.00000E+00 0.00000E+00
 3.20000E+00 0.00000E+00
 3.40000E+00 0.00000E+00
 3.60000E+00 0.00000E+00
 3.80000E+00 0.00000E+00
 4.00000E+00 0.00000E+00
 4.20000E+00 3.72911E+00
 4.40000E+00 8.40682E+00
 4.60000E+00 1.10498E+01
 4.80000E+00 1.24618E+01
 5.00000E+00 1.29389E+01
 5.50000E+00 1.26625E+01
 6.00000E+00 1.21782E+01
 6.50000E+00 1.18619E+01
 7.00000E+00 1.17668E+01
 7.50000E+00 1.19004E+01
 8.00000E+00 1.18228E+01
 8.50000E+00 1.10357E+01
 9.00000E+00 9.59569E+00
 9.50000E+00 7.94130E+00
 1.00000E+01 6.38382E+00
 1.10000E+01 4.12523E+00
 1.20000E+01 3.00691E+00
 1.30000E+01 2.49944E+00
 1.40000E+01 2.24588E+00
 1.50000E+01 2.08587E+00
 1.60000E+01 1.96260E+00
 1.70000E+01 1.87136E+00
 1.80000E+01 1.78397E+00
 1.90000E+01 1.70934E+00
 2.00000E+01 1.64252E+00
 2.10000E+01 1.57767E+00
 2.20000E+01 1.51227E+00
 2.30000E+01 1.45031E+00
 2.40000E+01 1.39123E+00
 2.50000E+01 1.33261E+00
 2.60000E+01 1.28190E+00
 2.70000E+01 1.23945E+00
 2.80000E+01 1.19779E+00
 2.90000E+01 1.16013E+00
 3.00000E+01 1.12308E+00
