# n + 208Pb: Gamma-ray intensity - 208Pb: Level 25 --> Level  4 - gamma energy    0.772300
# E-initial  =   4.480750 E-final=   3.708450
# E-threshold= 4.50248E+00
# # energies = 67
#    E         xs
 1.000E-11 0.00000E+00
 2.530E-08 0.00000E+00
 2.000E-07 0.00000E+00
 1.000E-06 0.00000E+00
 1.000E-03 0.00000E+00
 2.000E-03 0.00000E+00
 5.000E-03 0.00000E+00
 1.000E-02 0.00000E+00
 2.000E-02 0.00000E+00
 5.000E-02 0.00000E+00
 1.000E-01 0.00000E+00
 2.000E-01 0.00000E+00
 3.000E-01 0.00000E+00
 4.000E-01 0.00000E+00
 5.000E-01 0.00000E+00
 7.500E-01 0.00000E+00
 1.000E+00 0.00000E+00
 1.200E+00 0.00000E+00
 1.400E+00 0.00000E+00
 1.600E+00 0.00000E+00
 1.800E+00 0.00000E+00
 2.000E+00 0.00000E+00
 2.200E+00 0.00000E+00
 2.400E+00 0.00000E+00
 2.600E+00 0.00000E+00
 2.800E+00 0.00000E+00
 3.000E+00 0.00000E+00
 3.200E+00 0.00000E+00
 3.400E+00 0.00000E+00
 3.600E+00 0.00000E+00
 3.800E+00 0.00000E+00
 4.000E+00 0.00000E+00
 4.200E+00 0.00000E+00
 4.400E+00 0.00000E+00
 4.600E+00 6.45266E-01
 4.800E+00 1.28707E+00
 5.000E+00 1.75680E+00
 5.500E+00 2.20490E+00
 6.000E+00 2.30644E+00
 6.500E+00 2.42483E+00
 7.000E+00 2.55061E+00
 7.500E+00 2.69500E+00
 8.000E+00 2.83798E+00
 8.500E+00 2.87641E+00
 9.000E+00 2.69377E+00
 9.500E+00 2.34345E+00
 1.000E+01 1.91401E+00
 1.100E+01 1.14392E+00
 1.200E+01 6.71987E-01
 1.300E+01 4.40759E-01
 1.400E+01 3.32046E-01
 1.500E+01 2.81748E-01
 1.600E+01 2.55643E-01
 1.700E+01 2.40199E-01
 1.800E+01 2.24247E-01
 1.900E+01 2.10296E-01
 2.000E+01 2.01353E-01
 2.100E+01 1.91600E-01
 2.200E+01 1.81575E-01
 2.300E+01 1.74108E-01
 2.400E+01 1.64902E-01
 2.500E+01 1.55738E-01
 2.600E+01 1.47577E-01
 2.700E+01 1.40296E-01
 2.800E+01 1.34782E-01
 2.900E+01 1.29960E-01
 3.000E+01 1.25107E-01
