# n + 208Pb: Gamma-ray intensity - 208Pb: Level 17 --> Level  3 - gamma energy    0.705300
# E-initial  =   4.180410 E-final=   3.475110
# E-threshold= 4.20068E+00
# # energies = 66
#    E         xs
 1.000E-11 0.00000E+00
 2.530E-08 0.00000E+00
 1.000E-06 0.00000E+00
 1.000E-03 0.00000E+00
 2.000E-03 0.00000E+00
 5.000E-03 0.00000E+00
 1.000E-02 0.00000E+00
 2.000E-02 0.00000E+00
 5.000E-02 0.00000E+00
 1.000E-01 0.00000E+00
 2.000E-01 0.00000E+00
 3.000E-01 0.00000E+00
 4.000E-01 0.00000E+00
 5.000E-01 0.00000E+00
 7.500E-01 0.00000E+00
 1.000E+00 0.00000E+00
 1.200E+00 0.00000E+00
 1.400E+00 0.00000E+00
 1.600E+00 0.00000E+00
 1.800E+00 0.00000E+00
 2.000E+00 0.00000E+00
 2.200E+00 0.00000E+00
 2.400E+00 0.00000E+00
 2.600E+00 0.00000E+00
 2.800E+00 0.00000E+00
 3.000E+00 0.00000E+00
 3.200E+00 0.00000E+00
 3.400E+00 0.00000E+00
 3.600E+00 0.00000E+00
 3.800E+00 0.00000E+00
 4.000E+00 0.00000E+00
 4.200E+00 0.00000E+00
 4.400E+00 3.56770E+00
 4.600E+00 4.92694E+00
 4.800E+00 5.47308E+00
 5.000E+00 5.52331E+00
 5.500E+00 4.97199E+00
 6.000E+00 4.50555E+00
 6.500E+00 4.27014E+00
 7.000E+00 4.19896E+00
 7.500E+00 4.26246E+00
 8.000E+00 4.26570E+00
 8.500E+00 3.97175E+00
 9.000E+00 3.38740E+00
 9.500E+00 2.72166E+00
 1.000E+01 2.10085E+00
 1.100E+01 1.21384E+00
 1.200E+01 7.82958E-01
 1.300E+01 5.96064E-01
 1.400E+01 5.11515E-01
 1.500E+01 4.68371E-01
 1.600E+01 4.39973E-01
 1.700E+01 4.21788E-01
 1.800E+01 4.01182E-01
 1.900E+01 3.83407E-01
 2.000E+01 3.67961E-01
 2.100E+01 3.54213E-01
 2.200E+01 3.39307E-01
 2.300E+01 3.26794E-01
 2.400E+01 3.11613E-01
 2.500E+01 2.99491E-01
 2.600E+01 2.87677E-01
 2.700E+01 2.76889E-01
 2.800E+01 2.67367E-01
 2.900E+01 2.57354E-01
 3.000E+01 2.47725E-01
