# n + 208Pb: Gamma-ray intensity - 208Pb: Level 18 --> Level  2 - gamma energy    1.064160
# E-initial  =   4.261870 E-final=   3.197710
# E-threshold= 4.28254E+00
# # energies = 67
#    E         xs
 1.000E-11 0.00000E+00
 2.530E-08 0.00000E+00
 2.000E-07 0.00000E+00
 1.000E-06 0.00000E+00
 1.000E-03 0.00000E+00
 2.000E-03 0.00000E+00
 5.000E-03 0.00000E+00
 1.000E-02 0.00000E+00
 2.000E-02 0.00000E+00
 5.000E-02 0.00000E+00
 1.000E-01 0.00000E+00
 2.000E-01 0.00000E+00
 3.000E-01 0.00000E+00
 4.000E-01 0.00000E+00
 5.000E-01 0.00000E+00
 7.500E-01 0.00000E+00
 1.000E+00 0.00000E+00
 1.200E+00 0.00000E+00
 1.400E+00 0.00000E+00
 1.600E+00 0.00000E+00
 1.800E+00 0.00000E+00
 2.000E+00 0.00000E+00
 2.200E+00 0.00000E+00
 2.400E+00 0.00000E+00
 2.600E+00 0.00000E+00
 2.800E+00 0.00000E+00
 3.000E+00 0.00000E+00
 3.200E+00 0.00000E+00
 3.400E+00 0.00000E+00
 3.600E+00 0.00000E+00
 3.800E+00 0.00000E+00
 4.000E+00 0.00000E+00
 4.200E+00 0.00000E+00
 4.400E+00 6.62830E-01
 4.600E+00 1.14853E+00
 4.800E+00 1.43186E+00
 5.000E+00 1.53941E+00
 5.500E+00 1.46491E+00
 6.000E+00 1.31682E+00
 6.500E+00 1.19807E+00
 7.000E+00 1.10495E+00
 7.500E+00 1.04337E+00
 8.000E+00 9.57187E-01
 8.500E+00 8.22843E-01
 9.000E+00 6.71297E-01
 9.500E+00 5.18694E-01
 1.000E+01 3.88124E-01
 1.100E+01 2.08653E-01
 1.200E+01 1.22077E-01
 1.300E+01 8.20240E-02
 1.400E+01 6.41669E-02
 1.500E+01 5.51410E-02
 1.600E+01 4.97680E-02
 1.700E+01 4.65187E-02
 1.800E+01 4.30968E-02
 1.900E+01 4.02193E-02
 2.000E+01 3.80662E-02
 2.100E+01 3.60044E-02
 2.200E+01 3.39664E-02
 2.300E+01 3.23296E-02
 2.400E+01 3.05859E-02
 2.500E+01 2.86564E-02
 2.600E+01 2.68918E-02
 2.700E+01 2.58622E-02
 2.800E+01 2.49038E-02
 2.900E+01 2.40713E-02
 3.000E+01 2.32313E-02
