# n + 208Pb: Gamma-ray intensity - 208Pb: Level 15 --> Level  0 - gamma energy    4.141000
# E-initial  =   4.141000 E-final=   0.000000
# E-threshold= 4.16108E+00
# # energies = 67
#    E         xs
 1.000E-11 0.00000E+00
 2.530E-08 0.00000E+00
 2.000E-07 0.00000E+00
 1.000E-06 0.00000E+00
 1.000E-03 0.00000E+00
 2.000E-03 0.00000E+00
 5.000E-03 0.00000E+00
 1.000E-02 0.00000E+00
 2.000E-02 0.00000E+00
 5.000E-02 0.00000E+00
 1.000E-01 0.00000E+00
 2.000E-01 0.00000E+00
 3.000E-01 0.00000E+00
 4.000E-01 0.00000E+00
 5.000E-01 0.00000E+00
 7.500E-01 0.00000E+00
 1.000E+00 0.00000E+00
 1.200E+00 0.00000E+00
 1.400E+00 0.00000E+00
 1.600E+00 0.00000E+00
 1.800E+00 0.00000E+00
 2.000E+00 0.00000E+00
 2.200E+00 0.00000E+00
 2.400E+00 0.00000E+00
 2.600E+00 0.00000E+00
 2.800E+00 0.00000E+00
 3.000E+00 0.00000E+00
 3.200E+00 0.00000E+00
 3.400E+00 0.00000E+00
 3.600E+00 0.00000E+00
 3.800E+00 0.00000E+00
 4.000E+00 0.00000E+00
 4.200E+00 8.88545E+00
 4.400E+00 3.18815E+01
 4.600E+00 4.10352E+01
 4.800E+00 4.35223E+01
 5.000E+00 4.38737E+01
 5.500E+00 4.39916E+01
 6.000E+00 4.27809E+01
 6.500E+00 3.86135E+01
 7.000E+00 3.39982E+01
 7.500E+00 3.05871E+01
 8.000E+00 2.60895E+01
 8.500E+00 2.12148E+01
 9.000E+00 1.66608E+01
 9.500E+00 1.29658E+01
 1.000E+01 9.73192E+00
 1.100E+01 5.65789E+00
 1.200E+01 3.82028E+00
 1.300E+01 2.88282E+00
 1.400E+01 2.45031E+00
 1.500E+01 2.15184E+00
 1.600E+01 1.97355E+00
 1.700E+01 1.88887E+00
 1.800E+01 1.78484E+00
 1.900E+01 1.66504E+00
 2.000E+01 1.62161E+00
 2.100E+01 1.51466E+00
 2.200E+01 1.49790E+00
 2.300E+01 1.39120E+00
 2.400E+01 1.35326E+00
 2.500E+01 1.31872E+00
 2.600E+01 1.21359E+00
 2.700E+01 1.18892E+00
 2.800E+01 1.15058E+00
 2.900E+01 1.13853E+00
 3.000E+01 1.05986E+00
