# n + 208Pb: Gamma-ray intensity - 208Pb: Level  3 --> Level  2 - gamma energy    0.277367
# E-initial  =   3.475078 E-final=   3.197711
# E-threshold= 3.49193E+00
# # energies =    67
#    E           xs
 1.00000E-11 0.00000E+00
 2.53000E-08 0.00000E+00
 2.00000E-07 0.00000E+00
 1.00000E-06 0.00000E+00
 1.00000E-03 0.00000E+00
 2.00000E-03 0.00000E+00
 5.00000E-03 0.00000E+00
 1.00000E-02 0.00000E+00
 2.00000E-02 0.00000E+00
 5.00000E-02 0.00000E+00
 1.00000E-01 0.00000E+00
 2.00000E-01 0.00000E+00
 3.00000E-01 0.00000E+00
 4.00000E-01 0.00000E+00
 5.00000E-01 0.00000E+00
 7.50000E-01 0.00000E+00
 1.00000E+00 0.00000E+00
 1.20000E+00 0.00000E+00
 1.40000E+00 0.00000E+00
 1.60000E+00 0.00000E+00
 1.80000E+00 0.00000E+00
 2.00000E+00 0.00000E+00
 2.20000E+00 0.00000E+00
 2.40000E+00 0.00000E+00
 2.60000E+00 0.00000E+00
 2.80000E+00 0.00000E+00
 3.00000E+00 0.00000E+00
 3.20000E+00 0.00000E+00
 3.40000E+00 0.00000E+00
 3.60000E+00 2.44618E+01
 3.80000E+00 5.01064E+01
 4.00000E+00 6.87331E+01
 4.20000E+00 7.75329E+01
 4.40000E+00 8.29683E+01
 4.60000E+00 8.75310E+01
 4.80000E+00 9.14912E+01
 5.00000E+00 9.40128E+01
 5.50000E+00 9.23757E+01
 6.00000E+00 8.66201E+01
 6.50000E+00 8.23105E+01
 7.00000E+00 7.96395E+01
 7.50000E+00 7.79461E+01
 8.00000E+00 7.26253E+01
 8.50000E+00 6.23264E+01
 9.00000E+00 5.02801E+01
 9.50000E+00 3.82912E+01
 1.00000E+01 2.82551E+01
 1.10000E+01 1.49612E+01
 1.20000E+01 8.92483E+00
 1.30000E+01 6.31487E+00
 1.40000E+01 5.18044E+00
 1.50000E+01 4.58361E+00
 1.60000E+01 4.17203E+00
 1.70000E+01 3.92868E+00
 1.80000E+01 3.63614E+00
 1.90000E+01 3.40175E+00
 2.00000E+01 3.20771E+00
 2.10000E+01 3.04046E+00
 2.20000E+01 2.85678E+00
 2.30000E+01 2.70850E+00
 2.40000E+01 2.56235E+00
 2.50000E+01 2.37262E+00
 2.60000E+01 2.24570E+00
 2.70000E+01 2.15345E+00
 2.80000E+01 2.05865E+00
 2.90000E+01 1.97491E+00
 3.00000E+01 1.89561E+00
