# n + 208Pb: Gamma-ray intensity - 209Pb: Level  9 --> Level  0 - gamma energy    2.491000
# E-initial  =   2.491000 E-final=   0.000000
# E-threshold= 0.00000E+00
# # energies =    67
#    E           xs
 1.00000E-11 0.00000E+00
 2.53000E-08 0.00000E+00
 2.00000E-07 0.00000E+00
 1.00000E-06 5.73353E-04
 1.00000E-03 1.35442E-03
 2.00000E-03 2.28257E-03
 5.00000E-03 2.95484E-03
 1.00000E-02 2.32589E-03
 2.00000E-02 1.47296E-03
 5.00000E-02 3.69853E-03
 1.00000E-01 4.05874E-03
 2.00000E-01 3.44794E-03
 3.00000E-01 3.17763E-03
 4.00000E-01 3.16189E-03
 5.00000E-01 3.32449E-03
 7.50000E-01 4.09565E-03
 1.00000E+00 5.12268E-03
 1.20000E+00 6.13614E-03
 1.40000E+00 7.32233E-03
 1.60000E+00 8.76941E-03
 1.80000E+00 1.04968E-02
 2.00000E+00 1.25468E-02
 2.20000E+00 1.51008E-02
 2.40000E+00 1.79929E-02
 2.60000E+00 2.14082E-02
 2.80000E+00 1.64414E-02
 3.00000E+00 1.57006E-02
 3.20000E+00 1.64919E-02
 3.40000E+00 1.59784E-02
 3.60000E+00 1.59545E-02
 3.80000E+00 1.61431E-02
 4.00000E+00 1.65087E-02
 4.20000E+00 1.49435E-02
 4.40000E+00 1.27697E-02
 4.60000E+00 1.14253E-02
 4.80000E+00 1.08410E-02
 5.00000E+00 9.99827E-03
 5.50000E+00 8.39274E-03
 6.00000E+00 7.01528E-03
 6.50000E+00 6.10160E-03
 7.00000E+00 5.55541E-03
 7.50000E+00 5.53010E-03
 8.00000E+00 6.07918E-03
 8.50000E+00 7.31181E-03
 9.00000E+00 9.72755E-03
 9.50000E+00 1.37821E-02
 1.00000E+01 1.93627E-02
 1.10000E+01 2.67783E-02
 1.20000E+01 2.10244E-02
 1.30000E+01 1.38805E-02
 1.40000E+01 1.00172E-02
 1.50000E+01 8.62400E-03
 1.60000E+01 7.25478E-03
 1.70000E+01 7.35605E-03
 1.80000E+01 6.91009E-03
 1.90000E+01 6.86946E-03
 2.00000E+01 6.74726E-03
 2.10000E+01 6.00258E-03
 2.20000E+01 5.16412E-03
 2.30000E+01 4.79505E-03
 2.40000E+01 3.87756E-03
 2.50000E+01 3.60780E-03
 2.60000E+01 3.13880E-03
 2.70000E+01 2.98734E-03
 2.80000E+01 2.94474E-03
 2.90000E+01 2.76898E-03
 3.00000E+01 2.68572E-03
