# n + 208Pb: Gamma-ray intensity - 207Pb: Level  2 --> Level  1 - gamma energy    0.328097
# E-initial  =   0.897800 E-final=   0.569703
# E-threshold= 8.30576E+00
# # energies = 67
#    E         xs
 1.000E-11 0.00000E+00
 2.530E-08 0.00000E+00
 2.000E-07 0.00000E+00
 1.000E-06 0.00000E+00
 1.000E-03 0.00000E+00
 2.000E-03 0.00000E+00
 5.000E-03 0.00000E+00
 1.000E-02 0.00000E+00
 2.000E-02 0.00000E+00
 5.000E-02 0.00000E+00
 1.000E-01 0.00000E+00
 2.000E-01 0.00000E+00
 3.000E-01 0.00000E+00
 4.000E-01 0.00000E+00
 5.000E-01 0.00000E+00
 7.500E-01 0.00000E+00
 1.000E+00 0.00000E+00
 1.200E+00 0.00000E+00
 1.400E+00 0.00000E+00
 1.600E+00 0.00000E+00
 1.800E+00 0.00000E+00
 2.000E+00 0.00000E+00
 2.200E+00 0.00000E+00
 2.400E+00 0.00000E+00
 2.600E+00 0.00000E+00
 2.800E+00 0.00000E+00
 3.000E+00 0.00000E+00
 3.200E+00 0.00000E+00
 3.400E+00 0.00000E+00
 3.600E+00 0.00000E+00
 3.800E+00 0.00000E+00
 4.000E+00 0.00000E+00
 4.200E+00 0.00000E+00
 4.400E+00 0.00000E+00
 4.600E+00 0.00000E+00
 4.800E+00 0.00000E+00
 5.000E+00 0.00000E+00
 5.500E+00 0.00000E+00
 6.000E+00 0.00000E+00
 6.500E+00 0.00000E+00
 7.000E+00 0.00000E+00
 7.500E+00 0.00000E+00
 8.000E+00 0.00000E+00
 8.500E+00 5.05153E-03
 9.000E+00 1.02860E-01
 9.500E+00 3.10088E-01
 1.000E+01 5.52638E-01
 1.100E+01 9.98510E-01
 1.200E+01 1.22068E+00
 1.300E+01 1.21479E+00
 1.400E+01 1.10842E+00
 1.500E+01 9.96377E-01
 1.600E+01 8.73855E-01
 1.700E+01 7.39398E-01
 1.800E+01 6.09511E-01
 1.900E+01 4.97550E-01
 2.000E+01 4.05030E-01
 2.100E+01 3.29875E-01
 2.200E+01 2.77523E-01
 2.300E+01 2.41603E-01
 2.400E+01 2.15923E-01
 2.500E+01 1.98690E-01
 2.600E+01 1.86213E-01
 2.700E+01 1.74555E-01
 2.800E+01 1.67577E-01
 2.900E+01 1.58910E-01
 3.000E+01 1.52903E-01
