# n + 208Pb: Gamma-ray intensity - 209Pb: Level  9 --> Level  0 - gamma energy    2.491000
# E-initial  =   2.491000 E-final=   0.000000
# E-threshold= 0.00000E+00
# # energies = 67
#    E         xs
 1.000E-11 0.00000E+00
 2.530E-08 0.00000E+00
 2.000E-07 0.00000E+00
 1.000E-06 1.01935E-03
 1.000E-03 1.60829E-03
 2.000E-03 2.56461E-03
 5.000E-03 3.21326E-03
 1.000E-02 2.50569E-03
 2.000E-02 1.58079E-03
 5.000E-02 3.46284E-03
 1.000E-01 3.74383E-03
 2.000E-01 3.19982E-03
 3.000E-01 2.97409E-03
 4.000E-01 2.97666E-03
 5.000E-01 3.14430E-03
 7.500E-01 3.90746E-03
 1.000E+00 4.93237E-03
 1.200E+00 5.94120E-03
 1.400E+00 7.19015E-03
 1.600E+00 8.64124E-03
 1.800E+00 1.04292E-02
 2.000E+00 1.25697E-02
 2.200E+00 1.51107E-02
 2.400E+00 1.81221E-02
 2.600E+00 2.19897E-02
 2.800E+00 1.67551E-02
 3.000E+00 1.60552E-02
 3.200E+00 1.70987E-02
 3.400E+00 1.64223E-02
 3.600E+00 1.65282E-02
 3.800E+00 1.66860E-02
 4.000E+00 1.71706E-02
 4.200E+00 1.50837E-02
 4.400E+00 1.26102E-02
 4.600E+00 1.11192E-02
 4.800E+00 9.91546E-03
 5.000E+00 9.12813E-03
 5.500E+00 7.72321E-03
 6.000E+00 6.71303E-03
 6.500E+00 5.97910E-03
 7.000E+00 5.72219E-03
 7.500E+00 5.83071E-03
 8.000E+00 6.55635E-03
 8.500E+00 7.99511E-03
 9.000E+00 1.03821E-02
 9.500E+00 1.44646E-02
 1.000E+01 2.00091E-02
 1.100E+01 2.60984E-02
 1.200E+01 1.98881E-02
 1.300E+01 1.35330E-02
 1.400E+01 9.48240E-03
 1.500E+01 7.60292E-03
 1.600E+01 6.42606E-03
 1.700E+01 5.57253E-03
 1.800E+01 4.95629E-03
 1.900E+01 4.32425E-03
 2.000E+01 4.00192E-03
 2.100E+01 3.80666E-03
 2.200E+01 3.59362E-03
 2.300E+01 3.54647E-03
 2.400E+01 3.47793E-03
 2.500E+01 3.40890E-03
 2.600E+01 3.39837E-03
 2.700E+01 3.38223E-03
 2.800E+01 3.26306E-03
 2.900E+01 3.13650E-03
 3.000E+01 3.12570E-03
