# n + 208Pb: Gamma-ray intensity - 208Pb: Level 22 --> Level  2 - gamma energy    1.185580
# E-initial  =   4.383290 E-final=   3.197710
# E-threshold= 4.40455E+00
# # energies = 67
#    E         xs
 1.000E-11 0.00000E+00
 2.530E-08 0.00000E+00
 2.000E-07 0.00000E+00
 1.000E-06 0.00000E+00
 1.000E-03 0.00000E+00
 2.000E-03 0.00000E+00
 5.000E-03 0.00000E+00
 1.000E-02 0.00000E+00
 2.000E-02 0.00000E+00
 5.000E-02 0.00000E+00
 1.000E-01 0.00000E+00
 2.000E-01 0.00000E+00
 3.000E-01 0.00000E+00
 4.000E-01 0.00000E+00
 5.000E-01 0.00000E+00
 7.500E-01 0.00000E+00
 1.000E+00 0.00000E+00
 1.200E+00 0.00000E+00
 1.400E+00 0.00000E+00
 1.600E+00 0.00000E+00
 1.800E+00 0.00000E+00
 2.000E+00 0.00000E+00
 2.200E+00 0.00000E+00
 2.400E+00 0.00000E+00
 2.600E+00 0.00000E+00
 2.800E+00 0.00000E+00
 3.000E+00 0.00000E+00
 3.200E+00 0.00000E+00
 3.400E+00 0.00000E+00
 3.600E+00 0.00000E+00
 3.800E+00 0.00000E+00
 4.000E+00 0.00000E+00
 4.200E+00 0.00000E+00
 4.400E+00 0.00000E+00
 4.600E+00 1.31770E+01
 4.800E+00 2.04468E+01
 5.000E+00 2.51595E+01
 5.500E+00 2.93794E+01
 6.000E+00 3.08601E+01
 6.500E+00 3.26483E+01
 7.000E+00 3.46154E+01
 7.500E+00 3.69642E+01
 8.000E+00 3.92484E+01
 8.500E+00 3.99927E+01
 9.000E+00 3.76003E+01
 9.500E+00 3.28220E+01
 1.000E+01 2.68969E+01
 1.100E+01 1.61853E+01
 1.200E+01 9.57640E+00
 1.300E+01 6.32954E+00
 1.400E+01 4.80405E+00
 1.500E+01 4.09327E+00
 1.600E+01 3.71605E+00
 1.700E+01 3.49123E+00
 1.800E+01 3.25701E+00
 1.900E+01 3.05408E+00
 2.000E+01 2.92098E+00
 2.100E+01 2.77694E+00
 2.200E+01 2.62960E+00
 2.300E+01 2.51795E+00
 2.400E+01 2.38460E+00
 2.500E+01 2.24335E+00
 2.600E+01 2.12038E+00
 2.700E+01 2.01297E+00
 2.800E+01 1.93193E+00
 2.900E+01 1.86128E+00
 3.000E+01 1.79084E+00
