# n + 208Pb: Gamma-ray intensity - 208Pb: Level  4 --> Level  1 - gamma energy    1.093890
# E-initial  =   3.708440 E-final=   2.614550
# E-threshold= 3.72643E+00
# # energies = 67
#    E         xs
 1.000E-11 0.00000E+00
 2.530E-08 0.00000E+00
 2.000E-07 0.00000E+00
 1.000E-06 0.00000E+00
 1.000E-03 0.00000E+00
 2.000E-03 0.00000E+00
 5.000E-03 0.00000E+00
 1.000E-02 0.00000E+00
 2.000E-02 0.00000E+00
 5.000E-02 0.00000E+00
 1.000E-01 0.00000E+00
 2.000E-01 0.00000E+00
 3.000E-01 0.00000E+00
 4.000E-01 0.00000E+00
 5.000E-01 0.00000E+00
 7.500E-01 0.00000E+00
 1.000E+00 0.00000E+00
 1.200E+00 0.00000E+00
 1.400E+00 0.00000E+00
 1.600E+00 0.00000E+00
 1.800E+00 0.00000E+00
 2.000E+00 0.00000E+00
 2.200E+00 0.00000E+00
 2.400E+00 0.00000E+00
 2.600E+00 0.00000E+00
 2.800E+00 0.00000E+00
 3.000E+00 0.00000E+00
 3.200E+00 0.00000E+00
 3.400E+00 0.00000E+00
 3.600E+00 0.00000E+00
 3.800E+00 7.07611E-01
 4.000E+00 1.77161E+00
 4.200E+00 2.60124E+00
 4.400E+00 3.04859E+00
 4.600E+00 3.29322E+00
 4.800E+00 3.42833E+00
 5.000E+00 3.52278E+00
 5.500E+00 3.72962E+00
 6.000E+00 3.94500E+00
 6.500E+00 4.22711E+00
 7.000E+00 4.59832E+00
 7.500E+00 5.04446E+00
 8.000E+00 5.41840E+00
 8.500E+00 5.54806E+00
 9.000E+00 5.31938E+00
 9.500E+00 4.80691E+00
 1.000E+01 4.14250E+00
 1.100E+01 2.79761E+00
 1.200E+01 1.84990E+00
 1.300E+01 1.35051E+00
 1.400E+01 1.09178E+00
 1.500E+01 9.63974E-01
 1.600E+01 8.93231E-01
 1.700E+01 8.54071E-01
 1.800E+01 8.07821E-01
 1.900E+01 7.75208E-01
 2.000E+01 7.42839E-01
 2.100E+01 7.13615E-01
 2.200E+01 6.77043E-01
 2.300E+01 6.54299E-01
 2.400E+01 6.21196E-01
 2.500E+01 5.96069E-01
 2.600E+01 5.65238E-01
 2.700E+01 5.46414E-01
 2.800E+01 5.29548E-01
 2.900E+01 5.05144E-01
 3.000E+01 4.87997E-01
