# n + 208Pb: Gamma-ray intensity - 208Pb: Level 17 --> Level  3 - gamma energy    0.705300
# E-initial  =   4.180410 E-final=   3.475110
# E-threshold= 4.20068E+00
# # energies = 67
#    E         xs
 1.000E-11 0.00000E+00
 2.530E-08 0.00000E+00
 2.000E-07 0.00000E+00
 1.000E-06 0.00000E+00
 1.000E-03 0.00000E+00
 2.000E-03 0.00000E+00
 5.000E-03 0.00000E+00
 1.000E-02 0.00000E+00
 2.000E-02 0.00000E+00
 5.000E-02 0.00000E+00
 1.000E-01 0.00000E+00
 2.000E-01 0.00000E+00
 3.000E-01 0.00000E+00
 4.000E-01 0.00000E+00
 5.000E-01 0.00000E+00
 7.500E-01 0.00000E+00
 1.000E+00 0.00000E+00
 1.200E+00 0.00000E+00
 1.400E+00 0.00000E+00
 1.600E+00 0.00000E+00
 1.800E+00 0.00000E+00
 2.000E+00 0.00000E+00
 2.200E+00 0.00000E+00
 2.400E+00 0.00000E+00
 2.600E+00 0.00000E+00
 2.800E+00 0.00000E+00
 3.000E+00 0.00000E+00
 3.200E+00 0.00000E+00
 3.400E+00 0.00000E+00
 3.600E+00 0.00000E+00
 3.800E+00 0.00000E+00
 4.000E+00 0.00000E+00
 4.200E+00 0.00000E+00
 4.400E+00 3.59437E+00
 4.600E+00 5.06823E+00
 4.800E+00 5.77931E+00
 5.000E+00 5.98783E+00
 5.500E+00 5.64516E+00
 6.000E+00 5.17110E+00
 6.500E+00 4.84424E+00
 7.000E+00 4.65738E+00
 7.500E+00 4.62322E+00
 8.000E+00 4.58897E+00
 8.500E+00 4.34843E+00
 9.000E+00 3.83478E+00
 9.500E+00 3.19867E+00
 1.000E+01 2.55831E+00
 1.100E+01 1.54382E+00
 1.200E+01 9.73875E-01
 1.300E+01 6.95869E-01
 1.400E+01 5.59363E-01
 1.500E+01 4.90368E-01
 1.600E+01 4.48173E-01
 1.700E+01 4.25655E-01
 1.800E+01 4.01930E-01
 1.900E+01 3.83029E-01
 2.000E+01 3.66272E-01
 2.100E+01 3.52522E-01
 2.200E+01 3.43213E-01
 2.300E+01 3.30445E-01
 2.400E+01 3.16747E-01
 2.500E+01 3.05884E-01
 2.600E+01 2.92211E-01
 2.700E+01 2.82661E-01
 2.800E+01 2.72956E-01
 2.900E+01 2.64071E-01
 3.000E+01 2.55096E-01
