# n + 208Pb: Gamma-ray intensity - 207Pb: Level 10 --> Level  4 - gamma energy    0.569080
# E-initial  =   2.909000 E-final=   2.339920
# E-threshold= 1.03267E+01
# # energies = 67
#    E         xs
 1.000E-11 0.00000E+00
 2.530E-08 0.00000E+00
 2.000E-07 0.00000E+00
 1.000E-06 0.00000E+00
 1.000E-03 0.00000E+00
 2.000E-03 0.00000E+00
 5.000E-03 0.00000E+00
 1.000E-02 0.00000E+00
 2.000E-02 0.00000E+00
 5.000E-02 0.00000E+00
 1.000E-01 0.00000E+00
 2.000E-01 0.00000E+00
 3.000E-01 0.00000E+00
 4.000E-01 0.00000E+00
 5.000E-01 0.00000E+00
 7.500E-01 0.00000E+00
 1.000E+00 0.00000E+00
 1.200E+00 0.00000E+00
 1.400E+00 0.00000E+00
 1.600E+00 0.00000E+00
 1.800E+00 0.00000E+00
 2.000E+00 0.00000E+00
 2.200E+00 0.00000E+00
 2.400E+00 0.00000E+00
 2.600E+00 0.00000E+00
 2.800E+00 0.00000E+00
 3.000E+00 0.00000E+00
 3.200E+00 0.00000E+00
 3.400E+00 0.00000E+00
 3.600E+00 0.00000E+00
 3.800E+00 0.00000E+00
 4.000E+00 0.00000E+00
 4.200E+00 0.00000E+00
 4.400E+00 0.00000E+00
 4.600E+00 0.00000E+00
 4.800E+00 0.00000E+00
 5.000E+00 0.00000E+00
 5.500E+00 0.00000E+00
 6.000E+00 0.00000E+00
 6.500E+00 0.00000E+00
 7.000E+00 0.00000E+00
 7.500E+00 0.00000E+00
 8.000E+00 0.00000E+00
 8.500E+00 0.00000E+00
 9.000E+00 0.00000E+00
 9.500E+00 0.00000E+00
 1.000E+01 0.00000E+00
 1.100E+01 1.06867E+00
 1.200E+01 5.72007E+00
 1.300E+01 1.02427E+01
 1.400E+01 1.23124E+01
 1.500E+01 1.25289E+01
 1.600E+01 1.20984E+01
 1.700E+01 1.15838E+01
 1.800E+01 1.09982E+01
 1.900E+01 9.97544E+00
 2.000E+01 8.70462E+00
 2.100E+01 7.28161E+00
 2.200E+01 6.21749E+00
 2.300E+01 5.37924E+00
 2.400E+01 4.84115E+00
 2.500E+01 4.45962E+00
 2.600E+01 4.22053E+00
 2.700E+01 4.04734E+00
 2.800E+01 3.95339E+00
 2.900E+01 3.82983E+00
 3.000E+01 3.75049E+00
