# n + 208Pb: Gamma-ray intensity - 208Pb: Level  6 --> Level  3 - gamma energy    0.471500
# E-initial  =   3.946578 E-final=   3.475078
# E-threshold= 3.96572E+00
# # energies =    67
#    E           xs
 1.00000E-11 0.00000E+00
 2.53000E-08 0.00000E+00
 2.00000E-07 0.00000E+00
 1.00000E-06 0.00000E+00
 1.00000E-03 0.00000E+00
 2.00000E-03 0.00000E+00
 5.00000E-03 0.00000E+00
 1.00000E-02 0.00000E+00
 2.00000E-02 0.00000E+00
 5.00000E-02 0.00000E+00
 1.00000E-01 0.00000E+00
 2.00000E-01 0.00000E+00
 3.00000E-01 0.00000E+00
 4.00000E-01 0.00000E+00
 5.00000E-01 0.00000E+00
 7.50000E-01 0.00000E+00
 1.00000E+00 0.00000E+00
 1.20000E+00 0.00000E+00
 1.40000E+00 0.00000E+00
 1.60000E+00 0.00000E+00
 1.80000E+00 0.00000E+00
 2.00000E+00 0.00000E+00
 2.20000E+00 0.00000E+00
 2.40000E+00 0.00000E+00
 2.60000E+00 0.00000E+00
 2.80000E+00 0.00000E+00
 3.00000E+00 0.00000E+00
 3.20000E+00 0.00000E+00
 3.40000E+00 0.00000E+00
 3.60000E+00 0.00000E+00
 3.80000E+00 0.00000E+00
 4.00000E+00 4.18118E+00
 4.20000E+00 1.19551E+01
 4.40000E+00 1.55006E+01
 4.60000E+00 1.65222E+01
 4.80000E+00 1.64771E+01
 5.00000E+00 1.59204E+01
 5.50000E+00 1.44421E+01
 6.00000E+00 1.32551E+01
 6.50000E+00 1.23316E+01
 7.00000E+00 1.17566E+01
 7.50000E+00 1.14436E+01
 8.00000E+00 1.06156E+01
 8.50000E+00 9.03362E+00
 9.00000E+00 7.21338E+00
 9.50000E+00 5.42020E+00
 1.00000E+01 3.94039E+00
 1.10000E+01 2.00683E+00
 1.20000E+01 1.14590E+00
 1.30000E+01 7.77262E-01
 1.40000E+01 6.19608E-01
 1.50000E+01 5.38905E-01
 1.60000E+01 4.84691E-01
 1.70000E+01 4.53949E-01
 1.80000E+01 4.15796E-01
 1.90000E+01 3.85664E-01
 2.00000E+01 3.60372E-01
 2.10000E+01 3.39358E-01
 2.20000E+01 3.16390E-01
 2.30000E+01 2.98224E-01
 2.40000E+01 2.80199E-01
 2.50000E+01 2.56733E-01
 2.60000E+01 2.40675E-01
 2.70000E+01 2.29777E-01
 2.80000E+01 2.18360E-01
 2.90000E+01 2.08697E-01
 3.00000E+01 1.99342E-01
