# n + 208Pb: Gamma-ray intensity - 208Pb: Level  5 --> Level  4 - gamma energy    0.211360
# E-initial  =   3.919800 E-final=   3.708440
# E-threshold= 3.93881E+00
# # energies = 67
#    E         xs
 1.000E-11 0.00000E+00
 2.530E-08 0.00000E+00
 2.000E-07 0.00000E+00
 1.000E-06 0.00000E+00
 1.000E-03 0.00000E+00
 2.000E-03 0.00000E+00
 5.000E-03 0.00000E+00
 1.000E-02 0.00000E+00
 2.000E-02 0.00000E+00
 5.000E-02 0.00000E+00
 1.000E-01 0.00000E+00
 2.000E-01 0.00000E+00
 3.000E-01 0.00000E+00
 4.000E-01 0.00000E+00
 5.000E-01 0.00000E+00
 7.500E-01 0.00000E+00
 1.000E+00 0.00000E+00
 1.200E+00 0.00000E+00
 1.400E+00 0.00000E+00
 1.600E+00 0.00000E+00
 1.800E+00 0.00000E+00
 2.000E+00 0.00000E+00
 2.200E+00 0.00000E+00
 2.400E+00 0.00000E+00
 2.600E+00 0.00000E+00
 2.800E+00 0.00000E+00
 3.000E+00 0.00000E+00
 3.200E+00 0.00000E+00
 3.400E+00 0.00000E+00
 3.600E+00 0.00000E+00
 3.800E+00 0.00000E+00
 4.000E+00 5.43866E+00
 4.200E+00 1.33723E+01
 4.400E+00 2.26368E+01
 4.600E+00 2.81257E+01
 4.800E+00 3.11921E+01
 5.000E+00 3.29174E+01
 5.500E+00 3.55037E+01
 6.000E+00 3.81202E+01
 6.500E+00 4.13460E+01
 7.000E+00 4.52775E+01
 7.500E+00 4.98641E+01
 8.000E+00 5.38228E+01
 8.500E+00 5.53970E+01
 9.000E+00 5.29587E+01
 9.500E+00 4.72394E+01
 1.000E+01 3.99374E+01
 1.100E+01 2.56840E+01
 1.200E+01 1.61392E+01
 1.300E+01 1.13389E+01
 1.400E+01 8.96007E+00
 1.500E+01 7.79718E+00
 1.600E+01 7.16708E+00
 1.700E+01 6.81262E+00
 1.800E+01 6.36842E+00
 1.900E+01 6.07075E+00
 2.000E+01 5.77314E+00
 2.100E+01 5.50764E+00
 2.200E+01 5.24290E+00
 2.300E+01 5.05511E+00
 2.400E+01 4.75784E+00
 2.500E+01 4.56253E+00
 2.600E+01 4.29050E+00
 2.700E+01 4.14362E+00
 2.800E+01 3.99553E+00
 2.900E+01 3.78314E+00
 3.000E+01 3.64994E+00
