# n + 208Pb: Gamma-ray intensity - 209Pb: Level  8 --> Level  0 - gamma energy    2.463000
# E-initial  =   2.463000 E-final=   0.000000
# E-threshold= 0.00000E+00
# # energies =    67
#    E           xs
 1.00000E-11 0.00000E+00
 2.53000E-08 0.00000E+00
 2.00000E-07 0.00000E+00
 1.00000E-06 1.45475E-01
 1.00000E-03 2.95707E-02
 2.00000E-03 3.08992E-02
 5.00000E-03 3.03634E-02
 1.00000E-02 2.20787E-02
 2.00000E-02 1.34100E-02
 5.00000E-02 6.66178E-03
 1.00000E-01 4.35200E-03
 2.00000E-01 3.49035E-03
 3.00000E-01 3.22708E-03
 4.00000E-01 3.12382E-03
 5.00000E-01 3.12462E-03
 7.50000E-01 3.41165E-03
 1.00000E+00 3.99059E-03
 1.20000E+00 4.64676E-03
 1.40000E+00 5.43358E-03
 1.60000E+00 6.43022E-03
 1.80000E+00 7.63080E-03
 2.00000E+00 9.06158E-03
 2.20000E+00 1.08875E-02
 2.40000E+00 1.29308E-02
 2.60000E+00 1.53079E-02
 2.80000E+00 1.17707E-02
 3.00000E+00 1.13442E-02
 3.20000E+00 1.19504E-02
 3.40000E+00 1.23187E-02
 3.60000E+00 1.27628E-02
 3.80000E+00 1.28527E-02
 4.00000E+00 1.32422E-02
 4.20000E+00 1.20126E-02
 4.40000E+00 9.69484E-03
 4.60000E+00 8.28339E-03
 4.80000E+00 7.75974E-03
 5.00000E+00 6.97539E-03
 5.50000E+00 5.20800E-03
 6.00000E+00 4.18849E-03
 6.50000E+00 3.72542E-03
 7.00000E+00 3.71893E-03
 7.50000E+00 3.91039E-03
 8.00000E+00 4.67526E-03
 8.50000E+00 6.07518E-03
 9.00000E+00 8.26554E-03
 9.50000E+00 1.21039E-02
 1.00000E+01 1.75867E-02
 1.10000E+01 2.51044E-02
 1.20000E+01 1.92446E-02
 1.30000E+01 1.29161E-02
 1.40000E+01 9.28847E-03
 1.50000E+01 7.42247E-03
 1.60000E+01 6.26009E-03
 1.70000E+01 6.48378E-03
 1.80000E+01 6.11196E-03
 1.90000E+01 6.02864E-03
 2.00000E+01 5.68915E-03
 2.10000E+01 5.06630E-03
 2.20000E+01 4.37169E-03
 2.30000E+01 4.14886E-03
 2.40000E+01 3.39897E-03
 2.50000E+01 3.18701E-03
 2.60000E+01 2.79704E-03
 2.70000E+01 2.67166E-03
 2.80000E+01 2.56690E-03
 2.90000E+01 2.34073E-03
 3.00000E+01 2.26796E-03
