# n + 208Pb: Gamma-ray intensity - 208Pb: Level  3 --> Level  2 - gamma energy    0.277370
# E-initial  =   3.475110 E-final=   3.197740
# E-threshold= 3.49196E+00
# # energies = 67
#    E         xs
 1.000E-11 0.00000E+00
 2.530E-08 0.00000E+00
 2.000E-07 0.00000E+00
 1.000E-06 0.00000E+00
 1.000E-03 0.00000E+00
 2.000E-03 0.00000E+00
 5.000E-03 0.00000E+00
 1.000E-02 0.00000E+00
 2.000E-02 0.00000E+00
 5.000E-02 0.00000E+00
 1.000E-01 0.00000E+00
 2.000E-01 0.00000E+00
 3.000E-01 0.00000E+00
 4.000E-01 0.00000E+00
 5.000E-01 0.00000E+00
 7.500E-01 0.00000E+00
 1.000E+00 0.00000E+00
 1.200E+00 0.00000E+00
 1.400E+00 0.00000E+00
 1.600E+00 0.00000E+00
 1.800E+00 0.00000E+00
 2.000E+00 0.00000E+00
 2.200E+00 0.00000E+00
 2.400E+00 0.00000E+00
 2.600E+00 0.00000E+00
 2.800E+00 0.00000E+00
 3.000E+00 0.00000E+00
 3.200E+00 0.00000E+00
 3.400E+00 0.00000E+00
 3.600E+00 4.64149E+01
 3.800E+00 9.55184E+01
 4.000E+00 1.29013E+02
 4.200E+00 1.40022E+02
 4.400E+00 1.42513E+02
 4.600E+00 1.40578E+02
 4.800E+00 1.38918E+02
 5.000E+00 1.38077E+02
 5.500E+00 1.37398E+02
 6.000E+00 1.36456E+02
 6.500E+00 1.35957E+02
 7.000E+00 1.36240E+02
 7.500E+00 1.37047E+02
 8.000E+00 1.31969E+02
 8.500E+00 1.17311E+02
 9.000E+00 9.72532E+01
 9.500E+00 7.67529E+01
 1.000E+01 5.85880E+01
 1.100E+01 3.41293E+01
 1.200E+01 2.25356E+01
 1.300E+01 1.75130E+01
 1.400E+01 1.51101E+01
 1.500E+01 1.37929E+01
 1.600E+01 1.28689E+01
 1.700E+01 1.23010E+01
 1.800E+01 1.15842E+01
 1.900E+01 1.09949E+01
 2.000E+01 1.04628E+01
 2.100E+01 9.97881E+00
 2.200E+01 9.49890E+00
 2.300E+01 9.09198E+00
 2.400E+01 8.61183E+00
 2.500E+01 8.20306E+00
 2.600E+01 7.78133E+00
 2.700E+01 7.46133E+00
 2.800E+01 7.20018E+00
 2.900E+01 6.90383E+00
 3.000E+01 6.62987E+00
