# n + 208Pb: Gamma-ray intensity - 208Pb: Level  2 --> Level  1 - gamma energy    0.583190
# E-initial  =   3.197740 E-final=   2.614550
# E-threshold= 3.21325E+00
# # energies = 67
#    E         xs
 1.000E-11 0.00000E+00
 2.530E-08 0.00000E+00
 2.000E-07 0.00000E+00
 1.000E-06 0.00000E+00
 1.000E-03 0.00000E+00
 2.000E-03 0.00000E+00
 5.000E-03 0.00000E+00
 1.000E-02 0.00000E+00
 2.000E-02 0.00000E+00
 5.000E-02 0.00000E+00
 1.000E-01 0.00000E+00
 2.000E-01 0.00000E+00
 3.000E-01 0.00000E+00
 4.000E-01 0.00000E+00
 5.000E-01 0.00000E+00
 7.500E-01 0.00000E+00
 1.000E+00 0.00000E+00
 1.200E+00 0.00000E+00
 1.400E+00 0.00000E+00
 1.600E+00 0.00000E+00
 1.800E+00 0.00000E+00
 2.000E+00 0.00000E+00
 2.200E+00 0.00000E+00
 2.400E+00 0.00000E+00
 2.600E+00 0.00000E+00
 2.800E+00 0.00000E+00
 3.000E+00 0.00000E+00
 3.200E+00 0.00000E+00
 3.400E+00 1.34957E+02
 3.600E+00 2.48018E+02
 3.800E+00 3.73047E+02
 4.000E+00 5.26100E+02
 4.200E+00 6.93800E+02
 4.400E+00 8.34813E+02
 4.600E+00 9.14475E+02
 4.800E+00 9.62093E+02
 5.000E+00 9.91130E+02
 5.500E+00 1.02758E+03
 6.000E+00 1.05110E+03
 6.500E+00 1.08588E+03
 7.000E+00 1.13653E+03
 7.500E+00 1.20100E+03
 8.000E+00 1.23988E+03
 8.500E+00 1.21704E+03
 9.000E+00 1.12201E+03
 9.500E+00 9.81095E+02
 1.000E+01 8.21604E+02
 1.100E+01 5.34732E+02
 1.200E+01 3.51187E+02
 1.300E+01 2.57063E+02
 1.400E+01 2.09186E+02
 1.500E+01 1.84887E+02
 1.600E+01 1.70758E+02
 1.700E+01 1.62462E+02
 1.800E+01 1.52989E+02
 1.900E+01 1.45971E+02
 2.000E+01 1.39468E+02
 2.100E+01 1.33480E+02
 2.200E+01 1.26799E+02
 2.300E+01 1.21907E+02
 2.400E+01 1.15607E+02
 2.500E+01 1.10506E+02
 2.600E+01 1.04786E+02
 2.700E+01 1.01025E+02
 2.800E+01 9.74584E+01
 2.900E+01 9.31966E+01
 3.000E+01 8.96759E+01
