# n + 208Pb: Gamma-ray intensity - 208Pb: Level 12 --> Level  0 - gamma energy    4.085400
# E-initial  =   4.085400 E-final=   0.000000
# E-threshold= 4.10521E+00
# # energies = 66
#    E         xs
 1.000E-11 0.00000E+00
 2.530E-08 0.00000E+00
 1.000E-06 0.00000E+00
 1.000E-03 0.00000E+00
 2.000E-03 0.00000E+00
 5.000E-03 0.00000E+00
 1.000E-02 0.00000E+00
 2.000E-02 0.00000E+00
 5.000E-02 0.00000E+00
 1.000E-01 0.00000E+00
 2.000E-01 0.00000E+00
 3.000E-01 0.00000E+00
 4.000E-01 0.00000E+00
 5.000E-01 0.00000E+00
 7.500E-01 0.00000E+00
 1.000E+00 0.00000E+00
 1.200E+00 0.00000E+00
 1.400E+00 0.00000E+00
 1.600E+00 0.00000E+00
 1.800E+00 0.00000E+00
 2.000E+00 0.00000E+00
 2.200E+00 0.00000E+00
 2.400E+00 0.00000E+00
 2.600E+00 0.00000E+00
 2.800E+00 0.00000E+00
 3.000E+00 0.00000E+00
 3.200E+00 0.00000E+00
 3.400E+00 0.00000E+00
 3.600E+00 0.00000E+00
 3.800E+00 0.00000E+00
 4.000E+00 0.00000E+00
 4.200E+00 3.88127E+01
 4.400E+00 8.34328E+01
 4.600E+00 9.94549E+01
 4.800E+00 1.05128E+02
 5.000E+00 1.08196E+02
 5.500E+00 1.13585E+02
 6.000E+00 1.12062E+02
 6.500E+00 1.04151E+02
 7.000E+00 9.57947E+01
 7.500E+00 8.92710E+01
 8.000E+00 7.81689E+01
 8.500E+00 6.51421E+01
 9.000E+00 5.32805E+01
 9.500E+00 4.38543E+01
 1.000E+01 3.60117E+01
 1.100E+01 2.67723E+01
 1.200E+01 2.29138E+01
 1.300E+01 2.09816E+01
 1.400E+01 1.97912E+01
 1.500E+01 1.86751E+01
 1.600E+01 1.76797E+01
 1.700E+01 1.68451E+01
 1.800E+01 1.60123E+01
 1.900E+01 1.51363E+01
 2.000E+01 1.44721E+01
 2.100E+01 1.37225E+01
 2.200E+01 1.31883E+01
 2.300E+01 1.25787E+01
 2.400E+01 1.21578E+01
 2.500E+01 1.17511E+01
 2.600E+01 1.12447E+01
 2.700E+01 1.08818E+01
 2.800E+01 1.05427E+01
 2.900E+01 1.02252E+01
 3.000E+01 9.82973E+00
