# n + 208Pb: Gamma-ray intensity - 209Pb: Level  2 --> Level  0 - gamma energy    1.423000
# E-initial  =   1.423000 E-final=   0.000000
# E-threshold= 0.00000E+00
# # energies = 67
#    E         xs
 1.000E-11 0.00000E+00
 2.530E-08 0.00000E+00
 2.000E-07 0.00000E+00
 1.000E-06 0.00000E+00
 1.000E-03 0.00000E+00
 2.000E-03 1.03202E-11
 5.000E-03 3.19712E-11
 1.000E-02 2.92645E-11
 2.000E-02 1.14414E-11
 5.000E-02 5.00584E-09
 1.000E-01 3.95365E-07
 2.000E-01 3.76353E-06
 3.000E-01 1.71021E-04
 4.000E-01 4.78652E-04
 5.000E-01 8.82437E-04
 7.500E-01 1.92478E-03
 1.000E+00 4.47667E-03
 1.200E+00 7.15432E-03
 1.400E+00 1.21720E-02
 1.600E+00 1.88714E-02
 1.800E+00 2.84279E-02
 2.000E+00 4.27919E-02
 2.200E+00 6.19123E-02
 2.400E+00 8.77898E-02
 2.600E+00 1.22421E-01
 2.800E+00 1.55259E-01
 3.000E+00 1.74936E-01
 3.200E+00 1.97037E-01
 3.400E+00 1.02708E-01
 3.600E+00 8.27694E-02
 3.800E+00 7.05348E-02
 4.000E+00 5.58892E-02
 4.200E+00 3.04776E-02
 4.400E+00 2.39701E-02
 4.600E+00 2.00128E-02
 4.800E+00 1.85262E-02
 5.000E+00 1.69116E-02
 5.500E+00 1.73485E-02
 6.000E+00 2.04078E-02
 6.500E+00 2.64371E-02
 7.000E+00 3.69886E-02
 7.500E+00 5.50949E-02
 8.000E+00 8.60550E-02
 8.500E+00 1.35063E-01
 9.000E+00 1.94838E-01
 9.500E+00 2.36558E-01
 1.000E+01 2.43380E-01
 1.100E+01 2.33291E-01
 1.200E+01 2.56117E-01
 1.300E+01 2.85767E-01
 1.400E+01 2.94708E-01
 1.500E+01 2.66034E-01
 1.600E+01 2.12778E-01
 1.700E+01 1.68060E-01
 1.800E+01 1.39313E-01
 1.900E+01 1.22879E-01
 2.000E+01 1.11506E-01
 2.100E+01 1.05362E-01
 2.200E+01 9.94509E-02
 2.300E+01 9.54066E-02
 2.400E+01 8.97672E-02
 2.500E+01 8.77086E-02
 2.600E+01 8.47792E-02
 2.700E+01 8.06775E-02
 2.800E+01 7.74527E-02
 2.900E+01 7.62787E-02
 3.000E+01 7.46228E-02
