# n + 208Pb: Gamma-ray intensity - 207Pb: Level  2 --> Level  0 - gamma energy    0.897800
# E-initial  =   0.897800 E-final=   0.000000
# E-threshold= 8.30576E+00
# # energies = 67
#    E         xs
 1.000E-11 0.00000E+00
 2.530E-08 0.00000E+00
 2.000E-07 0.00000E+00
 1.000E-06 0.00000E+00
 1.000E-03 0.00000E+00
 2.000E-03 0.00000E+00
 5.000E-03 0.00000E+00
 1.000E-02 0.00000E+00
 2.000E-02 0.00000E+00
 5.000E-02 0.00000E+00
 1.000E-01 0.00000E+00
 2.000E-01 0.00000E+00
 3.000E-01 0.00000E+00
 4.000E-01 0.00000E+00
 5.000E-01 0.00000E+00
 7.500E-01 0.00000E+00
 1.000E+00 0.00000E+00
 1.200E+00 0.00000E+00
 1.400E+00 0.00000E+00
 1.600E+00 0.00000E+00
 1.800E+00 0.00000E+00
 2.000E+00 0.00000E+00
 2.200E+00 0.00000E+00
 2.400E+00 0.00000E+00
 2.600E+00 0.00000E+00
 2.800E+00 0.00000E+00
 3.000E+00 0.00000E+00
 3.200E+00 0.00000E+00
 3.400E+00 0.00000E+00
 3.600E+00 0.00000E+00
 3.800E+00 0.00000E+00
 4.000E+00 0.00000E+00
 4.200E+00 0.00000E+00
 4.400E+00 0.00000E+00
 4.600E+00 0.00000E+00
 4.800E+00 0.00000E+00
 5.000E+00 0.00000E+00
 5.500E+00 0.00000E+00
 6.000E+00 0.00000E+00
 6.500E+00 0.00000E+00
 7.000E+00 0.00000E+00
 7.500E+00 0.00000E+00
 8.000E+00 0.00000E+00
 8.500E+00 9.21968E-01
 9.000E+00 1.87745E+01
 9.500E+00 5.66000E+01
 1.000E+01 1.00873E+02
 1.100E+01 1.82234E+02
 1.200E+01 2.22745E+02
 1.300E+01 2.21648E+02
 1.400E+01 2.02224E+02
 1.500E+01 1.81759E+02
 1.600E+01 1.59384E+02
 1.700E+01 1.34851E+02
 1.800E+01 1.11157E+02
 1.900E+01 9.07278E+01
 2.000E+01 7.38463E+01
 2.100E+01 6.01318E+01
 2.200E+01 5.05865E+01
 2.300E+01 4.40371E+01
 2.400E+01 3.93541E+01
 2.500E+01 3.62082E+01
 2.600E+01 3.39298E+01
 2.700E+01 3.18079E+01
 2.800E+01 3.05397E+01
 2.900E+01 2.89625E+01
 3.000E+01 2.78675E+01
