# n + 208Pb: Gamma-ray intensity - 207Pb: Level  9 --> Level  3 - gamma energy    1.546630
# E-initial  =   3.180000 E-final=   1.633370
# E-threshold= 1.05990E+01
# # energies = 67
#    E         xs
 1.000E-11 0.00000E+00
 2.530E-08 0.00000E+00
 2.000E-07 0.00000E+00
 1.000E-06 0.00000E+00
 1.000E-03 0.00000E+00
 2.000E-03 0.00000E+00
 5.000E-03 0.00000E+00
 1.000E-02 0.00000E+00
 2.000E-02 0.00000E+00
 5.000E-02 0.00000E+00
 1.000E-01 0.00000E+00
 2.000E-01 0.00000E+00
 3.000E-01 0.00000E+00
 4.000E-01 0.00000E+00
 5.000E-01 0.00000E+00
 7.500E-01 0.00000E+00
 1.000E+00 0.00000E+00
 1.200E+00 0.00000E+00
 1.400E+00 0.00000E+00
 1.600E+00 0.00000E+00
 1.800E+00 0.00000E+00
 2.000E+00 0.00000E+00
 2.200E+00 0.00000E+00
 2.400E+00 0.00000E+00
 2.600E+00 0.00000E+00
 2.800E+00 0.00000E+00
 3.000E+00 0.00000E+00
 3.200E+00 0.00000E+00
 3.400E+00 0.00000E+00
 3.600E+00 0.00000E+00
 3.800E+00 0.00000E+00
 4.000E+00 0.00000E+00
 4.200E+00 0.00000E+00
 4.400E+00 0.00000E+00
 4.600E+00 0.00000E+00
 4.800E+00 0.00000E+00
 5.000E+00 0.00000E+00
 5.500E+00 0.00000E+00
 6.000E+00 0.00000E+00
 6.500E+00 0.00000E+00
 7.000E+00 0.00000E+00
 7.500E+00 0.00000E+00
 8.000E+00 0.00000E+00
 8.500E+00 0.00000E+00
 9.000E+00 0.00000E+00
 9.500E+00 0.00000E+00
 1.000E+01 0.00000E+00
 1.100E+01 2.29415E+00
 1.200E+01 2.65967E+01
 1.300E+01 5.84206E+01
 1.400E+01 8.40034E+01
 1.500E+01 9.83576E+01
 1.600E+01 1.03308E+02
 1.700E+01 9.82238E+01
 1.800E+01 8.48916E+01
 1.900E+01 6.79703E+01
 2.000E+01 5.24799E+01
 2.100E+01 4.05008E+01
 2.200E+01 3.23340E+01
 2.300E+01 2.71505E+01
 2.400E+01 2.38174E+01
 2.500E+01 2.17150E+01
 2.600E+01 2.02397E+01
 2.700E+01 1.90848E+01
 2.800E+01 1.82344E+01
 2.900E+01 1.73368E+01
 3.000E+01 1.67047E+01
