# n + 208Pb: Gamma-ray intensity - 208Pb: Level  6 --> Level  2 - gamma energy    0.748700
# E-initial  =   3.946440 E-final=   3.197740
# E-threshold= 3.96558E+00
# # energies = 67
#    E         xs
 1.000E-11 0.00000E+00
 2.530E-08 0.00000E+00
 2.000E-07 0.00000E+00
 1.000E-06 0.00000E+00
 1.000E-03 0.00000E+00
 2.000E-03 0.00000E+00
 5.000E-03 0.00000E+00
 1.000E-02 0.00000E+00
 2.000E-02 0.00000E+00
 5.000E-02 0.00000E+00
 1.000E-01 0.00000E+00
 2.000E-01 0.00000E+00
 3.000E-01 0.00000E+00
 4.000E-01 0.00000E+00
 5.000E-01 0.00000E+00
 7.500E-01 0.00000E+00
 1.000E+00 0.00000E+00
 1.200E+00 0.00000E+00
 1.400E+00 0.00000E+00
 1.600E+00 0.00000E+00
 1.800E+00 0.00000E+00
 2.000E+00 0.00000E+00
 2.200E+00 0.00000E+00
 2.400E+00 0.00000E+00
 2.600E+00 0.00000E+00
 2.800E+00 0.00000E+00
 3.000E+00 0.00000E+00
 3.200E+00 0.00000E+00
 3.400E+00 0.00000E+00
 3.600E+00 0.00000E+00
 3.800E+00 0.00000E+00
 4.000E+00 2.85132E+01
 4.200E+00 7.95149E+01
 4.400E+00 9.95232E+01
 4.600E+00 1.04913E+02
 4.800E+00 1.03534E+02
 5.000E+00 9.97800E+01
 5.500E+00 8.95236E+01
 6.000E+00 8.09625E+01
 6.500E+00 7.46216E+01
 7.000E+00 7.07912E+01
 7.500E+00 6.90573E+01
 8.000E+00 6.57943E+01
 8.500E+00 5.88458E+01
 9.000E+00 4.94731E+01
 9.500E+00 3.97015E+01
 1.000E+01 3.06850E+01
 1.100E+01 1.76838E+01
 1.200E+01 1.09325E+01
 1.300E+01 7.71839E+00
 1.400E+01 6.18528E+00
 1.500E+01 5.38319E+00
 1.600E+01 4.87506E+00
 1.700E+01 4.59574E+00
 1.800E+01 4.29558E+00
 1.900E+01 4.04160E+00
 2.000E+01 3.83893E+00
 2.100E+01 3.66774E+00
 2.200E+01 3.54217E+00
 2.300E+01 3.38434E+00
 2.400E+01 3.22273E+00
 2.500E+01 3.09508E+00
 2.600E+01 2.93756E+00
 2.700E+01 2.82141E+00
 2.800E+01 2.71795E+00
 2.900E+01 2.63158E+00
 3.000E+01 2.51734E+00
