# n + 208Pb: Gamma-ray intensity - 209Pb: Level  1 --> Level  0 - gamma energy    0.778800
# E-initial  =   0.778800 E-final=   0.000000
# E-threshold= 0.00000E+00
# # energies =    67
#    E           xs
 1.00000E-11 0.00000E+00
 2.53000E-08 0.00000E+00
 2.00000E-07 0.00000E+00
 1.00000E-06 1.76617E-05
 1.00000E-03 4.40409E-05
 2.00000E-03 7.51103E-05
 5.00000E-03 9.77740E-05
 1.00000E-02 7.70934E-05
 2.00000E-02 4.88824E-05
 5.00000E-02 2.66718E-04
 1.00000E-01 7.57392E-04
 2.00000E-01 2.55499E-03
 3.00000E-01 5.05434E-03
 4.00000E-01 7.69156E-03
 5.00000E-01 1.05668E-02
 7.50000E-01 1.72415E-02
 1.00000E+00 2.62377E-02
 1.20000E+00 3.42518E-02
 1.40000E+00 4.53576E-02
 1.60000E+00 5.85529E-02
 1.80000E+00 7.51169E-02
 2.00000E+00 9.59448E-02
 2.20000E+00 1.21689E-01
 2.40000E+00 1.53425E-01
 2.60000E+00 1.92341E-01
 2.80000E+00 1.92708E-01
 3.00000E+00 1.86399E-01
 3.20000E+00 1.89044E-01
 3.40000E+00 1.00486E-01
 3.60000E+00 8.83843E-02
 3.80000E+00 7.86339E-02
 4.00000E+00 6.93982E-02
 4.20000E+00 5.89011E-02
 4.40000E+00 4.97298E-02
 4.60000E+00 4.47127E-02
 4.80000E+00 5.93146E-02
 5.00000E+00 6.35859E-02
 5.50000E+00 7.27833E-02
 6.00000E+00 8.89834E-02
 6.50000E+00 1.18451E-01
 7.00000E+00 1.71023E-01
 7.50000E+00 2.55364E-01
 8.00000E+00 3.56717E-01
 8.50000E+00 4.32479E-01
 9.00000E+00 4.64271E-01
 9.50000E+00 4.49768E-01
 1.00000E+01 4.37734E-01
 1.10000E+01 3.73356E-01
 1.20000E+01 3.44797E-01
 1.30000E+01 3.06549E-01
 1.40000E+01 2.59159E-01
 1.50000E+01 2.10606E-01
 1.60000E+01 1.69826E-01
 1.70000E+01 1.43090E-01
 1.80000E+01 1.24879E-01
 1.90000E+01 1.11456E-01
 2.00000E+01 1.02449E-01
 2.10000E+01 9.30705E-02
 2.20000E+01 8.62317E-02
 2.30000E+01 8.06136E-02
 2.40000E+01 7.52226E-02
 2.50000E+01 7.14188E-02
 2.60000E+01 6.78535E-02
 2.70000E+01 6.50673E-02
 2.80000E+01 6.27656E-02
 2.90000E+01 6.07085E-02
 3.00000E+01 5.89195E-02
