# n + 208Pb: Gamma-ray intensity - 208Pb: Level  5 --> Level  4 - gamma energy    0.211520
# E-initial  =   3.919970 E-final=   3.708450
# E-threshold= 3.93898E+00
# # energies = 67
#    E         xs
 1.000E-11 0.00000E+00
 2.530E-08 0.00000E+00
 2.000E-07 0.00000E+00
 1.000E-06 0.00000E+00
 1.000E-03 0.00000E+00
 2.000E-03 0.00000E+00
 5.000E-03 0.00000E+00
 1.000E-02 0.00000E+00
 2.000E-02 0.00000E+00
 5.000E-02 0.00000E+00
 1.000E-01 0.00000E+00
 2.000E-01 0.00000E+00
 3.000E-01 0.00000E+00
 4.000E-01 0.00000E+00
 5.000E-01 0.00000E+00
 7.500E-01 0.00000E+00
 1.000E+00 0.00000E+00
 1.200E+00 0.00000E+00
 1.400E+00 0.00000E+00
 1.600E+00 0.00000E+00
 1.800E+00 0.00000E+00
 2.000E+00 0.00000E+00
 2.200E+00 0.00000E+00
 2.400E+00 0.00000E+00
 2.600E+00 0.00000E+00
 2.800E+00 0.00000E+00
 3.000E+00 0.00000E+00
 3.200E+00 0.00000E+00
 3.400E+00 0.00000E+00
 3.600E+00 0.00000E+00
 3.800E+00 0.00000E+00
 4.000E+00 5.60239E+00
 4.200E+00 1.18908E+01
 4.400E+00 1.49959E+01
 4.600E+00 1.64318E+01
 4.800E+00 1.74325E+01
 5.000E+00 1.87080E+01
 5.500E+00 2.24336E+01
 6.000E+00 2.61093E+01
 6.500E+00 3.03414E+01
 7.000E+00 3.53120E+01
 7.500E+00 4.06657E+01
 8.000E+00 4.56256E+01
 8.500E+00 4.88207E+01
 9.000E+00 4.83435E+01
 9.500E+00 4.44178E+01
 1.000E+01 3.81850E+01
 1.100E+01 2.50629E+01
 1.200E+01 1.57404E+01
 1.300E+01 1.08451E+01
 1.400E+01 8.49795E+00
 1.500E+01 7.35925E+00
 1.600E+01 6.74491E+00
 1.700E+01 6.38401E+00
 1.800E+01 5.99876E+00
 1.900E+01 5.66816E+00
 2.000E+01 5.46219E+00
 2.100E+01 5.21132E+00
 2.200E+01 4.96169E+00
 2.300E+01 4.76249E+00
 2.400E+01 4.53792E+00
 2.500E+01 4.23744E+00
 2.600E+01 4.02023E+00
 2.700E+01 3.81637E+00
 2.800E+01 3.65494E+00
 2.900E+01 3.51500E+00
 3.000E+01 3.38321E+00
