# n + 208Pb: Gamma-ray intensity - 209Pb: Level  5 --> Level  4 - gamma energy    0.117210
# E-initial  =   2.149430 E-final=   2.032220
# E-threshold= 0.00000E+00
# # energies = 66
#    E         xs
 1.000E-11 0.00000E+00
 2.530E-08 0.00000E+00
 1.000E-06 0.00000E+00
 1.000E-03 0.00000E+00
 2.000E-03 0.00000E+00
 5.000E-03 0.00000E+00
 1.000E-02 0.00000E+00
 2.000E-02 0.00000E+00
 5.000E-02 0.00000E+00
 1.000E-01 0.00000E+00
 2.000E-01 0.00000E+00
 3.000E-01 0.00000E+00
 4.000E-01 0.00000E+00
 5.000E-01 0.00000E+00
 7.500E-01 0.00000E+00
 1.000E+00 3.31839E-03
 1.200E+00 3.56887E-03
 1.400E+00 3.94040E-03
 1.600E+00 4.28367E-03
 1.800E+00 4.76671E-03
 2.000E+00 5.32494E-03
 2.200E+00 6.01360E-03
 2.400E+00 7.04972E-03
 2.600E+00 8.55518E-03
 2.800E+00 8.40975E-03
 3.000E+00 8.78513E-03
 3.200E+00 9.78544E-03
 3.400E+00 1.06039E-02
 3.600E+00 1.19336E-02
 3.800E+00 1.28625E-02
 4.000E+00 1.42741E-02
 4.200E+00 1.40737E-02
 4.400E+00 1.14853E-02
 4.600E+00 9.46569E-03
 4.800E+00 8.26899E-03
 5.000E+00 7.09720E-03
 5.500E+00 6.10082E-03
 6.000E+00 5.73941E-03
 6.500E+00 6.49462E-03
 7.000E+00 7.97682E-03
 7.500E+00 1.12228E-02
 8.000E+00 1.68511E-02
 8.500E+00 2.67180E-02
 9.000E+00 4.41002E-02
 9.500E+00 7.07495E-02
 1.000E+01 9.78146E-02
 1.100E+01 1.00850E-01
 1.200E+01 6.92362E-02
 1.300E+01 4.23613E-02
 1.400E+01 3.12243E-02
 1.500E+01 2.51783E-02
 1.600E+01 2.13517E-02
 1.700E+01 1.87130E-02
 1.800E+01 1.55323E-02
 1.900E+01 1.44512E-02
 2.000E+01 1.34707E-02
 2.100E+01 1.28082E-02
 2.200E+01 1.22491E-02
 2.300E+01 1.18383E-02
 2.400E+01 1.14246E-02
 2.500E+01 1.11188E-02
 2.600E+01 1.08457E-02
 2.700E+01 9.96046E-03
 2.800E+01 9.31709E-03
 2.900E+01 9.15677E-03
 3.000E+01 9.03893E-03
