# n + 208Pb: Gamma-ray intensity - 208Pb: Level 18 --> Level  2 - gamma energy    1.007660
# E-initial  =   4.205400 E-final=   3.197740
# E-threshold= 4.22580E+00
# # energies = 67
#    E         xs
 1.000E-11 0.00000E+00
 2.530E-08 0.00000E+00
 2.000E-07 0.00000E+00
 1.000E-06 0.00000E+00
 1.000E-03 0.00000E+00
 2.000E-03 0.00000E+00
 5.000E-03 0.00000E+00
 1.000E-02 0.00000E+00
 2.000E-02 0.00000E+00
 5.000E-02 0.00000E+00
 1.000E-01 0.00000E+00
 2.000E-01 0.00000E+00
 3.000E-01 0.00000E+00
 4.000E-01 0.00000E+00
 5.000E-01 0.00000E+00
 7.500E-01 0.00000E+00
 1.000E+00 0.00000E+00
 1.200E+00 0.00000E+00
 1.400E+00 0.00000E+00
 1.600E+00 0.00000E+00
 1.800E+00 0.00000E+00
 2.000E+00 0.00000E+00
 2.200E+00 0.00000E+00
 2.400E+00 0.00000E+00
 2.600E+00 0.00000E+00
 2.800E+00 0.00000E+00
 3.000E+00 0.00000E+00
 3.200E+00 0.00000E+00
 3.400E+00 0.00000E+00
 3.600E+00 0.00000E+00
 3.800E+00 0.00000E+00
 4.000E+00 0.00000E+00
 4.200E+00 0.00000E+00
 4.400E+00 1.69677E+01
 4.600E+00 2.60817E+01
 4.800E+00 3.18721E+01
 5.000E+00 3.50051E+01
 5.500E+00 3.79143E+01
 6.000E+00 4.01319E+01
 6.500E+00 4.32065E+01
 7.000E+00 4.69580E+01
 7.500E+00 5.14832E+01
 8.000E+00 5.57288E+01
 8.500E+00 5.75882E+01
 9.000E+00 5.48558E+01
 9.500E+00 4.85173E+01
 1.000E+01 4.06178E+01
 1.100E+01 2.55740E+01
 1.200E+01 1.57856E+01
 1.300E+01 1.09373E+01
 1.400E+01 8.58123E+00
 1.500E+01 7.44562E+00
 1.600E+01 6.85713E+00
 1.700E+01 6.55060E+00
 1.800E+01 6.14388E+00
 1.900E+01 5.88420E+00
 2.000E+01 5.62608E+00
 2.100E+01 5.39305E+00
 2.200E+01 5.18454E+00
 2.300E+01 5.02940E+00
 2.400E+01 4.76369E+00
 2.500E+01 4.62112E+00
 2.600E+01 4.35362E+00
 2.700E+01 4.23676E+00
 2.800E+01 4.09659E+00
 2.900E+01 3.90944E+00
 3.000E+01 3.78943E+00
