# n + 208Pb: Gamma-ray intensity - 208Pb: Level  6 --> Level  2 - gamma energy    0.748700
# E-initial  =   3.946440 E-final=   3.197740
# E-threshold= 3.96558E+00
# # energies = 67
#    E         xs
 1.000E-11 0.00000E+00
 2.530E-08 0.00000E+00
 2.000E-07 0.00000E+00
 1.000E-06 0.00000E+00
 1.000E-03 0.00000E+00
 2.000E-03 0.00000E+00
 5.000E-03 0.00000E+00
 1.000E-02 0.00000E+00
 2.000E-02 0.00000E+00
 5.000E-02 0.00000E+00
 1.000E-01 0.00000E+00
 2.000E-01 0.00000E+00
 3.000E-01 0.00000E+00
 4.000E-01 0.00000E+00
 5.000E-01 0.00000E+00
 7.500E-01 0.00000E+00
 1.000E+00 0.00000E+00
 1.200E+00 0.00000E+00
 1.400E+00 0.00000E+00
 1.600E+00 0.00000E+00
 1.800E+00 0.00000E+00
 2.000E+00 0.00000E+00
 2.200E+00 0.00000E+00
 2.400E+00 0.00000E+00
 2.600E+00 0.00000E+00
 2.800E+00 0.00000E+00
 3.000E+00 0.00000E+00
 3.200E+00 0.00000E+00
 3.400E+00 0.00000E+00
 3.600E+00 0.00000E+00
 3.800E+00 0.00000E+00
 4.000E+00 2.81928E+01
 4.200E+00 7.86214E+01
 4.400E+00 9.84750E+01
 4.600E+00 1.04148E+02
 4.800E+00 1.03437E+02
 5.000E+00 1.00627E+02
 5.500E+00 9.30564E+01
 6.000E+00 8.66192E+01
 6.500E+00 8.16023E+01
 7.000E+00 7.84043E+01
 7.500E+00 7.67914E+01
 8.000E+00 7.24949E+01
 8.500E+00 6.39827E+01
 9.000E+00 5.31207E+01
 9.500E+00 4.23252E+01
 1.000E+01 3.24677E+01
 1.100E+01 1.85831E+01
 1.200E+01 1.16698E+01
 1.300E+01 8.36122E+00
 1.400E+01 6.79801E+00
 1.500E+01 5.95920E+00
 1.600E+01 5.43535E+00
 1.700E+01 5.13100E+00
 1.800E+01 4.78328E+00
 1.900E+01 4.50225E+00
 2.000E+01 4.28735E+00
 2.100E+01 4.07120E+00
 2.200E+01 3.92172E+00
 2.300E+01 3.72203E+00
 2.400E+01 3.53676E+00
 2.500E+01 3.39353E+00
 2.600E+01 3.21136E+00
 2.700E+01 3.08604E+00
 2.800E+01 2.94458E+00
 2.900E+01 2.87272E+00
 3.000E+01 2.72975E+00
