# n + 208Pb: Gamma-ray intensity - 208Pb: Level  8 --> Level  2 - gamma energy    0.797730
# E-initial  =   3.995440 E-final=   3.197710
# E-threshold= 4.01482E+00
# # energies = 67
#    E         xs
 1.000E-11 0.00000E+00
 2.530E-08 0.00000E+00
 2.000E-07 0.00000E+00
 1.000E-06 0.00000E+00
 1.000E-03 0.00000E+00
 2.000E-03 0.00000E+00
 5.000E-03 0.00000E+00
 1.000E-02 0.00000E+00
 2.000E-02 0.00000E+00
 5.000E-02 0.00000E+00
 1.000E-01 0.00000E+00
 2.000E-01 0.00000E+00
 3.000E-01 0.00000E+00
 4.000E-01 0.00000E+00
 5.000E-01 0.00000E+00
 7.500E-01 0.00000E+00
 1.000E+00 0.00000E+00
 1.200E+00 0.00000E+00
 1.400E+00 0.00000E+00
 1.600E+00 0.00000E+00
 1.800E+00 0.00000E+00
 2.000E+00 0.00000E+00
 2.200E+00 0.00000E+00
 2.400E+00 0.00000E+00
 2.600E+00 0.00000E+00
 2.800E+00 0.00000E+00
 3.000E+00 0.00000E+00
 3.200E+00 0.00000E+00
 3.400E+00 0.00000E+00
 3.600E+00 0.00000E+00
 3.800E+00 0.00000E+00
 4.000E+00 0.00000E+00
 4.200E+00 1.48201E+01
 4.400E+00 2.10250E+01
 4.600E+00 2.34199E+01
 4.800E+00 2.40405E+01
 5.000E+00 2.36922E+01
 5.500E+00 2.18408E+01
 6.000E+00 2.00248E+01
 6.500E+00 1.85269E+01
 7.000E+00 1.75322E+01
 7.500E+00 1.69683E+01
 8.000E+00 1.58311E+01
 8.500E+00 1.37678E+01
 9.000E+00 1.13430E+01
 9.500E+00 8.85680E+00
 1.000E+01 6.71323E+00
 1.100E+01 3.72338E+00
 1.200E+01 2.26129E+00
 1.300E+01 1.57980E+00
 1.400E+01 1.27204E+00
 1.500E+01 1.11081E+00
 1.600E+01 1.00722E+00
 1.700E+01 9.41554E-01
 1.800E+01 8.72553E-01
 1.900E+01 8.15994E-01
 2.000E+01 7.70377E-01
 2.100E+01 7.28598E-01
 2.200E+01 6.86230E-01
 2.300E+01 6.51517E-01
 2.400E+01 6.16660E-01
 2.500E+01 5.73840E-01
 2.600E+01 5.37669E-01
 2.700E+01 5.15975E-01
 2.800E+01 4.96805E-01
 2.900E+01 4.79500E-01
 3.000E+01 4.62265E-01
