# n + 208Pb: Gamma-ray intensity - 208Pb: Level  2 --> Level  1 - gamma energy    0.583190
# E-initial  =   3.197710 E-final=   2.614520
# E-threshold= 3.21322E+00
# # energies = 67
#    E         xs
 1.000E-11 0.00000E+00
 2.530E-08 0.00000E+00
 2.000E-07 0.00000E+00
 1.000E-06 0.00000E+00
 1.000E-03 0.00000E+00
 2.000E-03 0.00000E+00
 5.000E-03 0.00000E+00
 1.000E-02 0.00000E+00
 2.000E-02 0.00000E+00
 5.000E-02 0.00000E+00
 1.000E-01 0.00000E+00
 2.000E-01 0.00000E+00
 3.000E-01 0.00000E+00
 4.000E-01 0.00000E+00
 5.000E-01 0.00000E+00
 7.500E-01 0.00000E+00
 1.000E+00 0.00000E+00
 1.200E+00 0.00000E+00
 1.400E+00 0.00000E+00
 1.600E+00 0.00000E+00
 1.800E+00 0.00000E+00
 2.000E+00 0.00000E+00
 2.200E+00 0.00000E+00
 2.400E+00 0.00000E+00
 2.600E+00 0.00000E+00
 2.800E+00 0.00000E+00
 3.000E+00 0.00000E+00
 3.200E+00 0.00000E+00
 3.400E+00 1.34997E+02
 3.600E+00 2.48023E+02
 3.800E+00 3.73065E+02
 4.000E+00 5.23126E+02
 4.200E+00 6.77746E+02
 4.400E+00 8.12671E+02
 4.600E+00 9.29183E+02
 4.800E+00 1.01084E+03
 5.000E+00 1.06646E+03
 5.500E+00 1.14034E+03
 6.000E+00 1.18288E+03
 6.500E+00 1.22298E+03
 7.000E+00 1.27083E+03
 7.500E+00 1.33205E+03
 8.000E+00 1.36590E+03
 8.500E+00 1.33292E+03
 9.000E+00 1.22539E+03
 9.500E+00 1.06674E+03
 1.000E+01 8.88756E+02
 1.100E+01 5.76545E+02
 1.200E+01 3.79416E+02
 1.300E+01 2.76907E+02
 1.400E+01 2.27127E+02
 1.500E+01 2.01160E+02
 1.600E+01 1.85534E+02
 1.700E+01 1.76078E+02
 1.800E+01 1.66395E+02
 1.900E+01 1.58175E+02
 2.000E+01 1.52135E+02
 2.100E+01 1.45700E+02
 2.200E+01 1.39364E+02
 2.300E+01 1.33868E+02
 2.400E+01 1.28095E+02
 2.500E+01 1.20684E+02
 2.600E+01 1.14680E+02
 2.700E+01 1.09986E+02
 2.800E+01 1.05811E+02
 2.900E+01 1.01911E+02
 3.000E+01 9.83648E+01
