# n + 208Pb: Gamma-ray intensity - 208Pb: Level 12 --> Level  0 - gamma energy    4.085400
# E-initial  =   4.085400 E-final=   0.000000
# E-threshold= 4.10521E+00
# # energies = 67
#    E         xs
 1.000E-11 0.00000E+00
 2.530E-08 0.00000E+00
 2.000E-07 0.00000E+00
 1.000E-06 0.00000E+00
 1.000E-03 0.00000E+00
 2.000E-03 0.00000E+00
 5.000E-03 0.00000E+00
 1.000E-02 0.00000E+00
 2.000E-02 0.00000E+00
 5.000E-02 0.00000E+00
 1.000E-01 0.00000E+00
 2.000E-01 0.00000E+00
 3.000E-01 0.00000E+00
 4.000E-01 0.00000E+00
 5.000E-01 0.00000E+00
 7.500E-01 0.00000E+00
 1.000E+00 0.00000E+00
 1.200E+00 0.00000E+00
 1.400E+00 0.00000E+00
 1.600E+00 0.00000E+00
 1.800E+00 0.00000E+00
 2.000E+00 0.00000E+00
 2.200E+00 0.00000E+00
 2.400E+00 0.00000E+00
 2.600E+00 0.00000E+00
 2.800E+00 0.00000E+00
 3.000E+00 0.00000E+00
 3.200E+00 0.00000E+00
 3.400E+00 0.00000E+00
 3.600E+00 0.00000E+00
 3.800E+00 0.00000E+00
 4.000E+00 0.00000E+00
 4.200E+00 3.88239E+01
 4.400E+00 8.38603E+01
 4.600E+00 9.99039E+01
 4.800E+00 1.04686E+02
 5.000E+00 1.06508E+02
 5.500E+00 1.11022E+02
 6.000E+00 1.11295E+02
 6.500E+00 1.03845E+02
 7.000E+00 9.45931E+01
 7.500E+00 8.72431E+01
 8.000E+00 7.70192E+01
 8.500E+00 6.57033E+01
 9.000E+00 5.49913E+01
 9.500E+00 4.61193E+01
 1.000E+01 3.82659E+01
 1.100E+01 2.82427E+01
 1.200E+01 2.36908E+01
 1.300E+01 2.12679E+01
 1.400E+01 1.98246E+01
 1.500E+01 1.85563E+01
 1.600E+01 1.75039E+01
 1.700E+01 1.66614E+01
 1.800E+01 1.58030E+01
 1.900E+01 1.49315E+01
 2.000E+01 1.42647E+01
 2.100E+01 1.35208E+01
 2.200E+01 1.30425E+01
 2.300E+01 1.24417E+01
 2.400E+01 1.20354E+01
 2.500E+01 1.16533E+01
 2.600E+01 1.11358E+01
 2.700E+01 1.07934E+01
 2.800E+01 1.04338E+01
 2.900E+01 1.01483E+01
 3.000E+01 9.74546E+00
