# n + 208Pb: Gamma-ray intensity - 208Pb: Level 14 --> Level  2 - gamma energy    0.927570
# E-initial  =   4.125310 E-final=   3.197740
# E-threshold= 4.14532E+00
# # energies = 66
#    E         xs
 1.000E-11 0.00000E+00
 2.530E-08 0.00000E+00
 1.000E-06 0.00000E+00
 1.000E-03 0.00000E+00
 2.000E-03 0.00000E+00
 5.000E-03 0.00000E+00
 1.000E-02 0.00000E+00
 2.000E-02 0.00000E+00
 5.000E-02 0.00000E+00
 1.000E-01 0.00000E+00
 2.000E-01 0.00000E+00
 3.000E-01 0.00000E+00
 4.000E-01 0.00000E+00
 5.000E-01 0.00000E+00
 7.500E-01 0.00000E+00
 1.000E+00 0.00000E+00
 1.200E+00 0.00000E+00
 1.400E+00 0.00000E+00
 1.600E+00 0.00000E+00
 1.800E+00 0.00000E+00
 2.000E+00 0.00000E+00
 2.200E+00 0.00000E+00
 2.400E+00 0.00000E+00
 2.600E+00 0.00000E+00
 2.800E+00 0.00000E+00
 3.000E+00 0.00000E+00
 3.200E+00 0.00000E+00
 3.400E+00 0.00000E+00
 3.600E+00 0.00000E+00
 3.800E+00 0.00000E+00
 4.000E+00 0.00000E+00
 4.200E+00 2.09153E+01
 4.400E+00 4.57744E+01
 4.600E+00 5.69252E+01
 4.800E+00 5.94883E+01
 5.000E+00 5.77574E+01
 5.500E+00 4.94763E+01
 6.000E+00 4.34751E+01
 6.500E+00 3.98472E+01
 7.000E+00 3.78223E+01
 7.500E+00 3.70129E+01
 8.000E+00 3.48377E+01
 8.500E+00 3.01150E+01
 9.000E+00 2.42126E+01
 9.500E+00 1.86022E+01
 1.000E+01 1.38043E+01
 1.100E+01 7.58109E+00
 1.200E+01 4.79899E+00
 1.300E+01 3.59182E+00
 1.400E+01 3.05541E+00
 1.500E+01 2.77040E+00
 1.600E+01 2.58230E+00
 1.700E+01 2.46991E+00
 1.800E+01 2.33671E+00
 1.900E+01 2.21736E+00
 2.000E+01 2.12200E+00
 2.100E+01 2.03412E+00
 2.200E+01 1.94530E+00
 2.300E+01 1.86315E+00
 2.400E+01 1.77055E+00
 2.500E+01 1.70319E+00
 2.600E+01 1.62711E+00
 2.700E+01 1.55967E+00
 2.800E+01 1.50279E+00
 2.900E+01 1.44890E+00
 3.000E+01 1.38448E+00
