# n + 208Pb: Gamma-ray intensity - 208Pb: Level 19 --> Level  1 - gamma energy    1.614950
# E-initial  =   4.229500 E-final=   2.614550
# E-threshold= 4.25001E+00
# # energies = 67
#    E         xs
 1.000E-11 0.00000E+00
 2.530E-08 0.00000E+00
 2.000E-07 0.00000E+00
 1.000E-06 0.00000E+00
 1.000E-03 0.00000E+00
 2.000E-03 0.00000E+00
 5.000E-03 0.00000E+00
 1.000E-02 0.00000E+00
 2.000E-02 0.00000E+00
 5.000E-02 0.00000E+00
 1.000E-01 0.00000E+00
 2.000E-01 0.00000E+00
 3.000E-01 0.00000E+00
 4.000E-01 0.00000E+00
 5.000E-01 0.00000E+00
 7.500E-01 0.00000E+00
 1.000E+00 0.00000E+00
 1.200E+00 0.00000E+00
 1.400E+00 0.00000E+00
 1.600E+00 0.00000E+00
 1.800E+00 0.00000E+00
 2.000E+00 0.00000E+00
 2.200E+00 0.00000E+00
 2.400E+00 0.00000E+00
 2.600E+00 0.00000E+00
 2.800E+00 0.00000E+00
 3.000E+00 0.00000E+00
 3.200E+00 0.00000E+00
 3.400E+00 0.00000E+00
 3.600E+00 0.00000E+00
 3.800E+00 0.00000E+00
 4.000E+00 0.00000E+00
 4.200E+00 0.00000E+00
 4.400E+00 3.28660E+01
 4.600E+00 4.88485E+01
 4.800E+00 5.44054E+01
 5.000E+00 5.41027E+01
 5.500E+00 4.60951E+01
 6.000E+00 3.92392E+01
 6.500E+00 3.46583E+01
 7.000E+00 3.13922E+01
 7.500E+00 2.91997E+01
 8.000E+00 2.54234E+01
 8.500E+00 2.07819E+01
 9.000E+00 1.63189E+01
 9.500E+00 1.25997E+01
 1.000E+01 9.19195E+00
 1.100E+01 5.15444E+00
 1.200E+01 3.35001E+00
 1.300E+01 2.42681E+00
 1.400E+01 1.98847E+00
 1.500E+01 1.74449E+00
 1.600E+01 1.60500E+00
 1.700E+01 1.54434E+00
 1.800E+01 1.49047E+00
 1.900E+01 1.40686E+00
 2.000E+01 1.39130E+00
 2.100E+01 1.31579E+00
 2.200E+01 1.33615E+00
 2.300E+01 1.25355E+00
 2.400E+01 1.23140E+00
 2.500E+01 1.21649E+00
 2.600E+01 1.12468E+00
 2.700E+01 1.11292E+00
 2.800E+01 1.07474E+00
 2.900E+01 1.07462E+00
 3.000E+01 9.95600E-01
