# n + 208Pb: Gamma-ray intensity - 208Pb: Level 15 --> Level  2 - gamma energy    1.008570
# E-initial  =   4.206280 E-final=   3.197710
# E-threshold= 4.22668E+00
# # energies = 67
#    E         xs
 1.000E-11 0.00000E+00
 2.530E-08 0.00000E+00
 2.000E-07 0.00000E+00
 1.000E-06 0.00000E+00
 1.000E-03 0.00000E+00
 2.000E-03 0.00000E+00
 5.000E-03 0.00000E+00
 1.000E-02 0.00000E+00
 2.000E-02 0.00000E+00
 5.000E-02 0.00000E+00
 1.000E-01 0.00000E+00
 2.000E-01 0.00000E+00
 3.000E-01 0.00000E+00
 4.000E-01 0.00000E+00
 5.000E-01 0.00000E+00
 7.500E-01 0.00000E+00
 1.000E+00 0.00000E+00
 1.200E+00 0.00000E+00
 1.400E+00 0.00000E+00
 1.600E+00 0.00000E+00
 1.800E+00 0.00000E+00
 2.000E+00 0.00000E+00
 2.200E+00 0.00000E+00
 2.400E+00 0.00000E+00
 2.600E+00 0.00000E+00
 2.800E+00 0.00000E+00
 3.000E+00 0.00000E+00
 3.200E+00 0.00000E+00
 3.400E+00 0.00000E+00
 3.600E+00 0.00000E+00
 3.800E+00 0.00000E+00
 4.000E+00 0.00000E+00
 4.200E+00 0.00000E+00
 4.400E+00 1.48895E+01
 4.600E+00 2.21881E+01
 4.800E+00 2.73410E+01
 5.000E+00 3.07246E+01
 5.500E+00 3.50308E+01
 6.000E+00 3.80143E+01
 6.500E+00 4.13702E+01
 7.000E+00 4.52246E+01
 7.500E+00 4.96192E+01
 8.000E+00 5.37381E+01
 8.500E+00 5.56650E+01
 9.000E+00 5.32146E+01
 9.500E+00 4.72061E+01
 1.000E+01 3.92722E+01
 1.100E+01 2.42928E+01
 1.200E+01 1.46638E+01
 1.300E+01 9.84763E+00
 1.400E+01 7.57168E+00
 1.500E+01 6.49789E+00
 1.600E+01 5.92001E+00
 1.700E+01 5.57340E+00
 1.800E+01 5.21051E+00
 1.900E+01 4.89693E+00
 2.000E+01 4.69306E+00
 2.100E+01 4.46520E+00
 2.200E+01 4.23320E+00
 2.300E+01 4.05503E+00
 2.400E+01 3.84757E+00
 2.500E+01 3.60773E+00
 2.600E+01 3.41301E+00
 2.700E+01 3.23913E+00
 2.800E+01 3.10696E+00
 2.900E+01 2.99178E+00
 3.000E+01 2.87907E+00
