# n +  28Si   : (n,a)             Total
# Q-value    =-2.65366E+00
# E-threshold= 2.74933E+00
# # energies = 50
#    E         xs       gamma xs  xs/res.prod.xs
 1.000E-01 0.00000E+00 0.00000E+00 0.00000E+00
 2.000E-01 0.00000E+00 0.00000E+00 0.00000E+00
 4.000E-01 0.00000E+00 0.00000E+00 0.00000E+00
 6.000E-01 0.00000E+00 0.00000E+00 0.00000E+00
 8.000E-01 0.00000E+00 0.00000E+00 0.00000E+00
 1.000E+00 0.00000E+00 0.00000E+00 0.00000E+00
 1.200E+00 0.00000E+00 0.00000E+00 0.00000E+00
 1.400E+00 0.00000E+00 0.00000E+00 0.00000E+00
 1.600E+00 0.00000E+00 0.00000E+00 0.00000E+00
 1.800E+00 0.00000E+00 0.00000E+00 0.00000E+00
 2.000E+00 0.00000E+00 0.00000E+00 0.00000E+00
 2.200E+00 0.00000E+00 0.00000E+00 0.00000E+00
 2.400E+00 0.00000E+00 0.00000E+00 0.00000E+00
 2.600E+00 0.00000E+00 0.00000E+00 0.00000E+00
 2.800E+00 0.00000E+00 0.00000E+00 0.00000E+00
 3.000E+00 0.00000E+00 0.00000E+00 0.00000E+00
 3.200E+00 0.00000E+00 0.00000E+00 0.00000E+00
 3.400E+00 0.00000E+00 0.00000E+00 0.00000E+00
 3.600E+00 0.00000E+00 0.00000E+00 0.00000E+00
 3.800E+00 0.00000E+00 0.00000E+00 0.00000E+00
 4.000E+00 2.04809E-05 0.00000E+00 0.00000E+00
 4.200E+00 3.73704E-04 0.00000E+00 0.00000E+00
 4.400E+00 3.40594E-03 0.00000E+00 1.00000E+00
 4.600E+00 2.01006E-02 7.97182E-06 1.00000E+00
 4.800E+00 8.61383E-02 1.50244E-04 1.00000E+00
 5.000E+00 2.83679E-01 1.34574E-03 1.00000E+00
 5.200E+00 7.96794E-01 7.80303E-03 1.00000E+00
 5.400E+00 1.93047E+00 3.29489E-02 1.00000E+00
 5.600E+00 4.17674E+00 1.16802E-01 1.00000E+00
 5.800E+00 8.16304E+00 3.46876E-01 1.00000E+00
 6.000E+00 1.45689E+01 8.96302E-01 1.00000E+00
 6.200E+00 2.39665E+01 2.04885E+00 1.00000E+00
 6.400E+00 3.66552E+01 4.20496E+00 1.00000E+00
 6.600E+00 5.13533E+01 7.76127E+00 1.00000E+00
 6.800E+00 6.77845E+01 1.31042E+01 1.00000E+00
 7.000E+00 8.56916E+01 2.04577E+01 1.00000E+00
 7.200E+00 1.02170E+02 2.95485E+01 1.00000E+00
 7.400E+00 1.15238E+02 3.95679E+01 1.00000E+00
 7.600E+00 1.28505E+02 5.13807E+01 1.00000E+00
 7.800E+00 1.38858E+02 6.29589E+01 1.00000E+00
 8.000E+00 1.49193E+02 7.56331E+01 1.00000E+00
 8.500E+00 1.70777E+02 1.10494E+02 1.00000E+00
 9.000E+00 1.96874E+02 1.63652E+02 9.99999E-01
 9.500E+00 2.07401E+02 2.05204E+02 9.99998E-01
 1.000E+01 2.10886E+02 2.41785E+02 9.99998E-01
 1.200E+01 2.21628E+02 3.49529E+02 9.99993E-01
 1.400E+01 2.15337E+02 3.86976E+02 9.99984E-01
 1.600E+01 1.82305E+02 3.46440E+02 9.99971E-01
 1.800E+01 1.28048E+02 2.49873E+02 9.99941E-01
 2.000E+01 8.78211E+01 1.73353E+02 9.99882E-01
