# n +  28Si   : (n,a)             Total
# Q-value    =-2.73244E+00
# E-threshold= 2.83095E+00
# # energies = 50
#    E         xs       gamma xs  xs/res.prod.xs
 1.000E-01 0.00000E+00 0.00000E+00 0.00000E+00
 2.000E-01 0.00000E+00 0.00000E+00 0.00000E+00
 4.000E-01 0.00000E+00 0.00000E+00 0.00000E+00
 6.000E-01 0.00000E+00 0.00000E+00 0.00000E+00
 8.000E-01 0.00000E+00 0.00000E+00 0.00000E+00
 1.000E+00 0.00000E+00 0.00000E+00 0.00000E+00
 1.200E+00 0.00000E+00 0.00000E+00 0.00000E+00
 1.400E+00 0.00000E+00 0.00000E+00 0.00000E+00
 1.600E+00 0.00000E+00 0.00000E+00 0.00000E+00
 1.800E+00 0.00000E+00 0.00000E+00 0.00000E+00
 2.000E+00 0.00000E+00 0.00000E+00 0.00000E+00
 2.200E+00 0.00000E+00 0.00000E+00 0.00000E+00
 2.400E+00 0.00000E+00 0.00000E+00 0.00000E+00
 2.600E+00 0.00000E+00 0.00000E+00 0.00000E+00
 2.800E+00 0.00000E+00 0.00000E+00 0.00000E+00
 3.000E+00 0.00000E+00 0.00000E+00 0.00000E+00
 3.200E+00 0.00000E+00 0.00000E+00 0.00000E+00
 3.400E+00 0.00000E+00 0.00000E+00 0.00000E+00
 3.600E+00 0.00000E+00 0.00000E+00 0.00000E+00
 3.800E+00 0.00000E+00 0.00000E+00 0.00000E+00
 4.000E+00 0.00000E+00 0.00000E+00 0.00000E+00
 4.200E+00 1.39360E-04 0.00000E+00 0.00000E+00
 4.400E+00 1.47539E-03 0.00000E+00 1.00000E+00
 4.600E+00 9.88640E-03 0.00000E+00 1.00000E+00
 4.800E+00 4.70724E-02 5.41233E-05 1.00000E+00
 5.000E+00 1.75531E-01 5.71276E-04 1.00000E+00
 5.200E+00 5.25175E-01 3.76448E-03 1.00000E+00
 5.400E+00 1.33384E+00 1.77794E-02 1.00000E+00
 5.600E+00 3.01639E+00 7.05203E-02 1.00000E+00
 5.800E+00 6.13873E+00 2.23052E-01 1.00000E+00
 6.000E+00 1.13685E+01 6.07735E-01 1.00000E+00
 6.200E+00 1.93452E+01 1.45358E+00 1.00000E+00
 6.400E+00 3.05037E+01 3.10563E+00 1.00000E+00
 6.600E+00 4.38667E+01 5.94733E+00 1.00000E+00
 6.800E+00 5.92546E+01 1.03896E+01 1.00000E+00
 7.000E+00 7.65490E+01 1.67145E+01 1.00000E+00
 7.200E+00 9.27056E+01 2.48055E+01 1.00000E+00
 7.400E+00 1.05773E+02 3.40220E+01 9.99999E-01
 7.600E+00 1.19769E+02 4.51127E+01 9.99999E-01
 7.800E+00 1.30418E+02 5.61328E+01 9.99999E-01
 8.000E+00 1.41300E+02 6.82891E+01 9.99998E-01
 8.500E+00 1.64038E+02 1.02202E+02 9.99996E-01
 9.000E+00 1.82745E+02 1.44911E+02 9.99993E-01
 9.500E+00 1.92090E+02 1.83500E+02 9.99987E-01
 1.000E+01 1.98300E+02 2.21261E+02 9.99979E-01
 1.200E+01 2.07246E+02 3.24956E+02 9.99917E-01
 1.400E+01 2.08775E+02 3.69649E+02 9.99808E-01
 1.600E+01 1.76723E+02 3.35708E+02 9.99617E-01
 1.800E+01 1.23809E+02 2.42734E+02 9.99234E-01
 2.000E+01 8.19614E+01 1.64274E+02 9.98535E-01
