# n +  28Si   : (n,a)             Total
# Q-value    =-2.73224E+00
# E-threshold= 2.83074E+00
# # energies =    50
#     E          xs       gamma xs  xs/res.prod.xs
 1.00000E-01 0.00000E+00 0.00000E+00 0.00000E+00
 2.00000E-01 0.00000E+00 0.00000E+00 0.00000E+00
 4.00000E-01 0.00000E+00 0.00000E+00 0.00000E+00
 6.00000E-01 0.00000E+00 0.00000E+00 0.00000E+00
 8.00000E-01 0.00000E+00 0.00000E+00 0.00000E+00
 1.00000E+00 0.00000E+00 0.00000E+00 0.00000E+00
 1.20000E+00 0.00000E+00 0.00000E+00 0.00000E+00
 1.40000E+00 0.00000E+00 0.00000E+00 0.00000E+00
 1.60000E+00 0.00000E+00 0.00000E+00 0.00000E+00
 1.80000E+00 0.00000E+00 0.00000E+00 0.00000E+00
 2.00000E+00 0.00000E+00 0.00000E+00 0.00000E+00
 2.20000E+00 0.00000E+00 0.00000E+00 0.00000E+00
 2.40000E+00 0.00000E+00 0.00000E+00 0.00000E+00
 2.60000E+00 0.00000E+00 0.00000E+00 0.00000E+00
 2.80000E+00 0.00000E+00 0.00000E+00 0.00000E+00
 3.00000E+00 0.00000E+00 0.00000E+00 0.00000E+00
 3.20000E+00 0.00000E+00 0.00000E+00 0.00000E+00
 3.40000E+00 0.00000E+00 0.00000E+00 0.00000E+00
 3.60000E+00 0.00000E+00 0.00000E+00 0.00000E+00
 3.80000E+00 0.00000E+00 0.00000E+00 0.00000E+00
 4.00000E+00 0.00000E+00 0.00000E+00 0.00000E+00
 4.20000E+00 8.47842E-05 0.00000E+00 0.00000E+00
 4.40000E+00 1.07618E-03 0.00000E+00 1.00000E+00
 4.60000E+00 8.20348E-03 0.00000E+00 1.00000E+00
 4.80000E+00 4.22031E-02 3.24169E-05 1.00000E+00
 5.00000E+00 1.67097E-01 4.14470E-04 1.00000E+00
 5.20000E+00 5.15178E-01 3.07523E-03 1.00000E+00
 5.40000E+00 1.32938E+00 1.57641E-02 1.00000E+00
 5.60000E+00 3.02851E+00 6.61274E-02 1.00000E+00
 5.80000E+00 6.17811E+00 2.15692E-01 1.00000E+00
 6.00000E+00 1.14349E+01 5.98571E-01 1.00000E+00
 6.20000E+00 1.94110E+01 1.44732E+00 1.00000E+00
 6.40000E+00 3.05079E+01 3.10979E+00 1.00000E+00
 6.60000E+00 4.37141E+01 5.96541E+00 1.00000E+00
 6.80000E+00 5.87937E+01 1.04113E+01 1.00000E+00
 7.00000E+00 7.57068E+01 1.67115E+01 1.00000E+00
 7.20000E+00 9.14894E+01 2.47010E+01 1.00000E+00
 7.40000E+00 1.04229E+02 3.37244E+01 9.99999E-01
 7.60000E+00 1.17944E+02 4.45511E+01 9.99999E-01
 7.80000E+00 1.28400E+02 5.52826E+01 9.99999E-01
 8.00000E+00 1.39108E+02 6.71140E+01 9.99998E-01
 8.50000E+00 1.61938E+02 1.00286E+02 9.99997E-01
 9.00000E+00 1.76042E+02 1.34389E+02 9.99994E-01
 9.50000E+00 1.83161E+02 1.67375E+02 9.99990E-01
 1.00000E+01 1.87122E+02 1.98868E+02 9.99983E-01
 1.20000E+01 1.80282E+02 2.69771E+02 9.99926E-01
 1.40000E+01 1.67050E+02 2.86147E+02 9.99816E-01
 1.60000E+01 1.27455E+02 2.36525E+02 9.99601E-01
 1.80000E+01 7.47275E+01 1.45390E+02 9.99084E-01
 2.00000E+01 4.18756E+01 8.36235E+01 9.98113E-01
