# n +  28Si   : (n,a)             Total
# Q-value    =-2.73224E+00
# E-threshold= 2.83074E+00
# # energies =    50
#     E          xs       gamma xs  xs/res.prod.xs
 1.00000E-01 0.00000E+00 0.00000E+00 0.00000E+00
 2.00000E-01 0.00000E+00 0.00000E+00 0.00000E+00
 4.00000E-01 0.00000E+00 0.00000E+00 0.00000E+00
 6.00000E-01 0.00000E+00 0.00000E+00 0.00000E+00
 8.00000E-01 0.00000E+00 0.00000E+00 0.00000E+00
 1.00000E+00 0.00000E+00 0.00000E+00 0.00000E+00
 1.20000E+00 0.00000E+00 0.00000E+00 0.00000E+00
 1.40000E+00 0.00000E+00 0.00000E+00 0.00000E+00
 1.60000E+00 0.00000E+00 0.00000E+00 0.00000E+00
 1.80000E+00 0.00000E+00 0.00000E+00 0.00000E+00
 2.00000E+00 0.00000E+00 0.00000E+00 0.00000E+00
 2.20000E+00 0.00000E+00 0.00000E+00 0.00000E+00
 2.40000E+00 0.00000E+00 0.00000E+00 0.00000E+00
 2.60000E+00 0.00000E+00 0.00000E+00 0.00000E+00
 2.80000E+00 0.00000E+00 0.00000E+00 0.00000E+00
 3.00000E+00 0.00000E+00 0.00000E+00 0.00000E+00
 3.20000E+00 0.00000E+00 0.00000E+00 0.00000E+00
 3.40000E+00 0.00000E+00 0.00000E+00 0.00000E+00
 3.60000E+00 0.00000E+00 0.00000E+00 0.00000E+00
 3.80000E+00 0.00000E+00 0.00000E+00 0.00000E+00
 4.00000E+00 0.00000E+00 0.00000E+00 0.00000E+00
 4.20000E+00 8.39291E-05 0.00000E+00 0.00000E+00
 4.40000E+00 1.06522E-03 0.00000E+00 1.00000E+00
 4.60000E+00 8.11919E-03 0.00000E+00 1.00000E+00
 4.80000E+00 4.17648E-02 3.20808E-05 1.00000E+00
 5.00000E+00 1.65333E-01 4.10103E-04 1.00000E+00
 5.20000E+00 5.09647E-01 3.04226E-03 1.00000E+00
 5.40000E+00 1.31488E+00 1.55924E-02 1.00000E+00
 5.60000E+00 2.99499E+00 6.53963E-02 1.00000E+00
 5.80000E+00 6.10879E+00 2.13274E-01 1.00000E+00
 6.00000E+00 1.13050E+01 5.91775E-01 1.00000E+00
 6.20000E+00 1.91877E+01 1.43068E+00 1.00000E+00
 6.40000E+00 3.01530E+01 3.07364E+00 1.00000E+00
 6.60000E+00 4.32003E+01 5.89535E+00 1.00000E+00
 6.80000E+00 5.80961E+01 1.02879E+01 1.00000E+00
 7.00000E+00 7.48011E+01 1.65117E+01 1.00000E+00
 7.20000E+00 9.03870E+01 2.44034E+01 1.00000E+00
 7.40000E+00 1.02962E+02 3.33148E+01 9.99999E-01
 7.60000E+00 1.16502E+02 4.40065E+01 9.99999E-01
 7.80000E+00 1.26822E+02 5.46033E+01 9.99999E-01
 8.00000E+00 1.37392E+02 6.62862E+01 9.99998E-01
 8.50000E+00 1.59931E+02 9.90437E+01 9.99997E-01
 9.00000E+00 1.73861E+02 1.32724E+02 9.99994E-01
 9.50000E+00 1.80901E+02 1.65310E+02 9.99990E-01
 1.00000E+01 1.84839E+02 1.96444E+02 9.99983E-01
 1.20000E+01 1.78152E+02 2.66605E+02 9.99928E-01
 1.40000E+01 1.65194E+02 2.83003E+02 9.99821E-01
 1.60000E+01 1.26163E+02 2.34157E+02 9.99613E-01
 1.80000E+01 7.40820E+01 1.44155E+02 9.99121E-01
 2.00000E+01 4.16121E+01 8.31101E+01 9.98218E-01
