# n +  28Si   : (n,p)             Total
# Q-value    =-3.85989E+00
# E-threshold= 3.99905E+00
# # energies = 50
#    E         xs       gamma xs  xs/res.prod.xs
 1.000E-01 0.00000E+00 0.00000E+00 0.00000E+00
 2.000E-01 0.00000E+00 0.00000E+00 0.00000E+00
 4.000E-01 0.00000E+00 0.00000E+00 0.00000E+00
 6.000E-01 0.00000E+00 0.00000E+00 0.00000E+00
 8.000E-01 0.00000E+00 0.00000E+00 0.00000E+00
 1.000E+00 0.00000E+00 0.00000E+00 0.00000E+00
 1.200E+00 0.00000E+00 0.00000E+00 0.00000E+00
 1.400E+00 0.00000E+00 0.00000E+00 0.00000E+00
 1.600E+00 0.00000E+00 0.00000E+00 0.00000E+00
 1.800E+00 0.00000E+00 0.00000E+00 0.00000E+00
 2.000E+00 0.00000E+00 0.00000E+00 0.00000E+00
 2.200E+00 0.00000E+00 0.00000E+00 0.00000E+00
 2.400E+00 0.00000E+00 0.00000E+00 0.00000E+00
 2.600E+00 0.00000E+00 0.00000E+00 0.00000E+00
 2.800E+00 0.00000E+00 0.00000E+00 0.00000E+00
 3.000E+00 0.00000E+00 0.00000E+00 0.00000E+00
 3.200E+00 0.00000E+00 0.00000E+00 0.00000E+00
 3.400E+00 0.00000E+00 0.00000E+00 0.00000E+00
 3.600E+00 0.00000E+00 0.00000E+00 0.00000E+00
 3.800E+00 0.00000E+00 0.00000E+00 0.00000E+00
 4.000E+00 0.00000E+00 0.00000E+00 0.00000E+00
 4.200E+00 0.00000E+00 0.00000E+00 0.00000E+00
 4.400E+00 2.14311E-03 8.42129E-04 1.00000E+00
 4.600E+00 8.52449E-02 3.61107E-02 1.00000E+00
 4.800E+00 7.68677E-01 3.51317E-01 1.00000E+00
 5.000E+00 3.12997E+00 1.53678E+00 1.00000E+00
 5.200E+00 8.81395E+00 4.48263E+00 1.00000E+00
 5.400E+00 1.91212E+01 9.84429E+00 1.00000E+00
 5.600E+00 3.50557E+01 1.81851E+01 1.00000E+00
 5.800E+00 5.66665E+01 2.97278E+01 1.00000E+00
 6.000E+00 8.29747E+01 4.44773E+01 1.00000E+00
 6.200E+00 1.12222E+02 6.23798E+01 1.00000E+00
 6.400E+00 1.42669E+02 8.36874E+01 1.00000E+00
 6.600E+00 1.69034E+02 1.06763E+02 1.00000E+00
 6.800E+00 1.89461E+02 1.30858E+02 1.00000E+00
 7.000E+00 2.10308E+02 1.59167E+02 1.00000E+00
 7.200E+00 2.26922E+02 1.87856E+02 1.00000E+00
 7.400E+00 2.38006E+02 2.15203E+02 1.00000E+00
 7.600E+00 2.51061E+02 2.45535E+02 9.99999E-01
 7.800E+00 2.57869E+02 2.69601E+02 9.99999E-01
 8.000E+00 2.63088E+02 2.91175E+02 9.99999E-01
 8.500E+00 2.81050E+02 3.49587E+02 9.99999E-01
 9.000E+00 2.97594E+02 4.04412E+02 9.99998E-01
 9.500E+00 3.17311E+02 4.63315E+02 9.99997E-01
 1.000E+01 3.33007E+02 5.14081E+02 9.99996E-01
 1.200E+01 3.56128E+02 6.43422E+02 9.99990E-01
 1.400E+01 3.45836E+02 7.00636E+02 9.99980E-01
 1.600E+01 2.36505E+02 4.98981E+02 9.99950E-01
 1.800E+01 1.38307E+02 2.95923E+02 9.99866E-01
 2.000E+01 7.97533E+01 1.71640E+02 9.99652E-01
