# n +  28Si   : (n,p)             Total
# Q-value    =-3.85989E+00
# E-threshold= 3.99905E+00
# # energies = 50
#    E         xs       gamma xs  xs/res.prod.xs
 1.000E-01 0.00000E+00 0.00000E+00 0.00000E+00
 2.000E-01 0.00000E+00 0.00000E+00 0.00000E+00
 4.000E-01 0.00000E+00 0.00000E+00 0.00000E+00
 6.000E-01 0.00000E+00 0.00000E+00 0.00000E+00
 8.000E-01 0.00000E+00 0.00000E+00 0.00000E+00
 1.000E+00 0.00000E+00 0.00000E+00 0.00000E+00
 1.200E+00 0.00000E+00 0.00000E+00 0.00000E+00
 1.400E+00 0.00000E+00 0.00000E+00 0.00000E+00
 1.600E+00 0.00000E+00 0.00000E+00 0.00000E+00
 1.800E+00 0.00000E+00 0.00000E+00 0.00000E+00
 2.000E+00 0.00000E+00 0.00000E+00 0.00000E+00
 2.200E+00 0.00000E+00 0.00000E+00 0.00000E+00
 2.400E+00 0.00000E+00 0.00000E+00 0.00000E+00
 2.600E+00 0.00000E+00 0.00000E+00 0.00000E+00
 2.800E+00 0.00000E+00 0.00000E+00 0.00000E+00
 3.000E+00 0.00000E+00 0.00000E+00 0.00000E+00
 3.200E+00 0.00000E+00 0.00000E+00 0.00000E+00
 3.400E+00 0.00000E+00 0.00000E+00 0.00000E+00
 3.600E+00 0.00000E+00 0.00000E+00 0.00000E+00
 3.800E+00 0.00000E+00 0.00000E+00 0.00000E+00
 4.000E+00 0.00000E+00 0.00000E+00 0.00000E+00
 4.200E+00 0.00000E+00 0.00000E+00 0.00000E+00
 4.400E+00 2.14322E-03 8.42187E-04 1.00000E+00
 4.600E+00 8.52468E-02 3.61124E-02 1.00000E+00
 4.800E+00 7.68664E-01 3.51317E-01 1.00000E+00
 5.000E+00 3.12958E+00 1.53662E+00 1.00000E+00
 5.200E+00 8.81046E+00 4.48104E+00 1.00000E+00
 5.400E+00 1.91033E+01 9.83587E+00 1.00000E+00
 5.600E+00 3.49893E+01 1.81531E+01 1.00000E+00
 5.800E+00 5.64716E+01 2.96318E+01 1.00000E+00
 6.000E+00 8.24988E+01 4.42342E+01 1.00000E+00
 6.200E+00 1.11220E+02 6.18399E+01 1.00000E+00
 6.400E+00 1.40797E+02 8.26057E+01 1.00000E+00
 6.600E+00 1.66033E+02 1.04864E+02 1.00000E+00
 6.800E+00 1.85097E+02 1.27796E+02 1.00000E+00
 7.000E+00 2.04203E+02 1.54442E+02 1.00000E+00
 7.200E+00 2.19044E+02 1.81157E+02 1.00000E+00
 7.400E+00 2.28571E+02 2.06387E+02 1.00000E+00
 7.600E+00 2.41091E+02 2.35337E+02 9.99999E-01
 7.800E+00 2.48221E+02 2.58892E+02 9.99999E-01
 8.000E+00 2.53532E+02 2.79778E+02 9.99999E-01
 8.500E+00 2.70357E+02 3.35104E+02 9.99998E-01
 9.000E+00 2.82711E+02 3.83225E+02 9.99997E-01
 9.500E+00 2.94590E+02 4.27320E+02 9.99996E-01
 1.000E+01 3.03907E+02 4.65313E+02 9.99994E-01
 1.200E+01 3.15503E+02 5.70466E+02 9.99985E-01
 1.400E+01 2.96755E+02 6.05435E+02 9.99971E-01
 1.600E+01 1.88565E+02 4.00237E+02 9.99932E-01
 1.800E+01 1.03703E+02 2.22636E+02 9.99822E-01
 2.000E+01 5.91453E+01 1.27341E+02 9.99585E-01
